PE UV                   SPECTRUM    ASCII       PEDS        1.5         
-1
OPALRETA.SP
########
13:33:05.00
########
13:33:05.00
FINN POULSEN
OPALGLAS I COLORANALYSATOR. RETTET TRANSMITTANS.
350
1









4444

SCAN
1
1


0

2
MANUAL



UV/VIS




































#HDR
-1
-1
#GR
NM
%T
2.38E-05
0
1100
2.5	
301	
8	
85.21548	
6.528533	
#DATA	
1100	85.21548
1097.5	83.91479
1095	82.63419
1092.5	81.42764
1090	80.07828
1087.5	78.51336
1085	77.31299
1082.5	76.08486
1080	74.77367
1077.5	73.57208
1075	72.36292
1072.5	71.05219
1070	69.88915
1067.5	68.69704
1065	67.58307
1062.5	66.39276
1060	65.31634
1057.5	64.23857
1055	63.18208
1052.5	62.0466
1050	61.05639
1047.5	60.02963
1045	59.0089
1042.5	58.03087
1040	57.05054
1037.5	56.01342
1035	54.93068
1032.5	53.88796
1030	52.85233
1027.5	51.83255
1025	50.84138
1022.5	49.91793
1020	48.95711
1017.5	47.96547
1015	47.0481
1012.5	46.18976
1010	45.33282
1007.5	44.51772
1005	43.72915
1002.5	42.93293
1000	42.16029
997.5	41.42008
995	40.68676
992.5	39.98905
990	39.34501
987.5	38.68917
985	38.04308
982.5	37.38641
980	36.71413
977.5	36.00791
975	35.29524
972.5	34.58343
970	33.87223
967.5	33.13473
965	32.38854
962.5	31.74341
960	31.14908
957.5	30.58655
955	30.01903
952.5	29.43058
950	28.92216
947.5	28.37091
945	27.83474
942.5	27.29944
940	26.79091
937.5	26.2961
935	25.79677
932.5	25.31932
930	24.83955
927.5	24.38811
925	23.94403
922.5	23.49839
920	23.12529
917.5	22.72592
915	22.27054
912.5	21.89018
910	21.5304
907.5	21.13844
905	20.76475
902.5	20.4172
900	20.02739
897.5	19.77928
895	19.50629
892.5	19.168
890	18.81581
887.5	18.46525
885	18.18756
882.5	17.90959
880	17.59508
877.5	17.36956
875	17.08736
872.5	16.9278
870	16.64868
867.5	16.34896
865	16.12033
862.5	15.90678
860	15.9081
857.5	16.51926
855	16.07219
852.5	15.975
850	15.74516
847.5	15.52003
845	15.24828
842.5	14.91671
840	14.90311
837.5	14.75081
835	14.47867
832.5	14.31185
830	14.19886
827.5	14.07912
825	13.85258
822.5	13.69415
820	13.61139
817.5	13.46978
815	13.33618
812.5	13.26085
810	13.1355
807.5	13.02292
805	12.89537
802.5	12.8359
800	12.7267
797.5	12.67231
795	12.5835
792.5	12.51614
790	12.43056
787.5	12.32574
785	12.26685
782.5	12.19991
780	12.08586
777.5	12.04103
775	12.00081
772.5	11.88844
770	11.86585
767.5	11.83113
765	11.75919
762.5	11.72881
760	11.68255
757.5	11.60721
755	11.53843
752.5	11.50998
750	11.47645
747.5	11.43665
745	11.37711
742.5	11.34372
740	11.30969
737.5	11.26733
735	11.2191
732.5	11.17159
730	11.13415
727.5	11.10172
725	11.06556
722.5	11.05966
720	11.00146
717.5	10.94486
715	10.92154
712.5	10.89775
710	10.85809
707.5	10.81903
705	10.79395
702.5	10.73328
700	10.70553
697.5	10.65443
695	10.63886
692.5	10.62126
690	10.60027
687.5	10.53244
685	10.50174
682.5	10.4818
680	10.44532
677.5	10.43924
675	10.40948
672.5	10.3699
670	10.35767
667.5	10.35053
665	10.31209
662.5	10.2939
660	10.25652
657.5	10.23642
655	10.20595
652.5	10.19793
650	10.1783
647.5	10.14571
645	10.12557
642.5	10.10597
640	10.0905
637.5	10.07629
635	10.04424
632.5	10.02252
630	10.01131
627.5	9.987659
625	9.973286
622.5	9.962421
620	9.927569
617.5	9.9208
615	9.907733
612.5	9.890479
610	9.869418
607.5	9.83521
605	9.837827
602.5	9.818416
600	9.786139
597.5	9.756073
595	9.744582
592.5	9.735446
590	9.707444
587.5	9.696069
585	9.669512
582.5	9.668023
580	9.64557
577.5	9.647676
575	9.639636
572.5	9.616482
570	9.586526
567.5	9.564524
565	9.542491
562.5	9.53356
560	9.529149
557.5	9.511754
555	9.490325
552.5	9.474049
550	9.449949
547.5	9.429581
545	9.413873
542.5	9.398824
540	9.369055
537.5	9.356065
535	9.35198
532.5	9.332085
530	9.300793
527.5	9.288902
525	9.255171
522.5	9.216991
520	9.172345
517.5	9.115512
515	9.040178
512.5	8.948319
510	8.858572
507.5	8.739094
505	8.621717
502.5	8.548441
500	8.516074
497.5	8.532073
495	8.566799
492.5	8.60741
490	8.626437
487.5	8.628997
485	8.635483
482.5	8.607993
480	8.577
477.5	8.555428
475	8.518669
472.5	8.496274
470	8.451562
467.5	8.386043
465	8.337498
462.5	8.276326
460	8.216504
457.5	8.192878
455	8.176857
452.5	8.168192
450	8.168092
447.5	8.182332
445	8.1654
442.5	8.131639
440	8.11183
437.5	8.089157
435	8.042643
432.5	8.011907
430	7.987008
427.5	7.965234
425	7.950704
422.5	7.901186
420	7.864665
417.5	7.844446
415	7.809772
412.5	7.769477
410	7.744731
407.5	7.714717
405	7.681947
402.5	7.652911
400	7.622147
397.5	7.575176
395	7.537388
392.5	7.466711
390	7.412259
387.5	7.362198
385	7.284067
382.5	7.218895
380	7.168408
377.5	7.158202
375	7.142676
372.5	7.087949
370	7.074294
367.5	7.049844
365	6.982894
362.5	6.935322
360	6.863604
357.5	6.766917
355	6.682178
352.5	6.600503
350	6.528533
