PE UV       SUBTECH     SPECTRUM    ASCII       PEDS        1.5         
  -1
OPALRETI.SP
96/08/07
14:20:31.00
96/08/07
14:44:19.00
FINN POULSEN
OPALGLAS COLORANALYSATOR. RETTET TRANSMITTANS. I
350.000000
1









4444

SCAN
1
1


0.0

2.00
MANUAL



UV/VIS




































#HDR
-1
-1
#GR
NM
%T
0.00002384185791015625
0.0
1100.000000
2.500000
301
8
63.017348
6.387532
#DATA
1100.000000	63.017348 
1097.500000	62.022081 
1095.000000	60.981023 
1092.500000	60.031241 
1090.000000	59.079991 
1087.500000	58.019982 
1085.000000	57.105745 
1082.500000	56.156985 
1080.000000	55.133665 
1077.500000	54.241891 
1075.000000	53.359908 
1072.500000	52.396851 
1070.000000	51.528663 
1067.500000	50.592667 
1065.000000	49.663186 
1062.500000	48.674856 
1060.000000	47.769480 
1057.500000	46.875129 
1055.000000	45.935078 
1052.500000	45.022769 
1050.000000	44.182893 
1047.500000	43.339940 
1045.000000	42.521143 
1042.500000	41.730433 
1040.000000	40.951131 
1037.500000	40.182850 
1035.000000	39.430310 
1032.500000	38.706878 
1030.000000	37.984555 
1027.500000	37.260033 
1025.000000	36.566453 
1022.500000	35.917360 
1020.000000	35.230380 
1017.500000	34.520553 
1015.000000	33.871204 
1012.500000	33.286814 
1010.000000	32.710837 
1007.500000	32.126761 
1005.000000	31.604139 
1002.500000	31.074792 
1000.000000	30.529237 
997.500000	 30.017785 
995.000000	 29.516368 
992.500000	 29.039820 
990.000000	 28.565377 
987.500000	 28.088540 
985.000000	 27.631692 
982.500000	 27.170879 
980.000000	 26.705606 
977.500000	 26.217994 
975.000000	 25.726760 
972.500000	 25.243783 
970.000000	 24.779940 
967.500000	 24.332753 
965.000000	 23.852429 
962.500000	 23.420584 
960.000000	 23.034248 
957.500000	 22.668315 
955.000000	 22.285686 
952.500000	 21.893299 
950.000000	 21.516060 
947.500000	 21.162994 
945.000000	 20.811327 
942.500000	 20.457626 
940.000000	 20.112163 
937.500000	 19.783557 
935.000000	 19.464438 
932.500000	 19.161786 
930.000000	 18.882863 
927.500000	 18.604343 
925.000000	 18.304138 
922.500000	 18.034360 
920.000000	 17.771005 
917.500000	 17.532248 
915.000000	 17.247550 
912.500000	 16.992287 
910.000000	 16.776350 
907.500000	 16.541651 
905.000000	 16.299806 
902.500000	 16.122556 
900.000000	 15.916808 
897.500000	 15.763299 
895.000000	 15.564645 
892.500000	 15.337192 
890.000000	 15.137374 
887.500000	 14.913554 
885.000000	 14.732922 
882.500000	 14.575630 
880.000000	 14.406284 
877.500000	 14.320807 
875.000000	 14.130524 
872.500000	 13.949746 
870.000000	 13.778450 
867.500000	 13.600337 
865.000000	 13.497092 
862.500000	 13.356840 
860.000000	 13.516080 
857.500000	 14.152165 
855.000000	 13.898113 
852.500000	 13.924370 
850.000000	 13.772885 
847.500000	 13.527977 
845.000000	 13.356706 
842.500000	 13.234596 
840.000000	 13.164905 
837.500000	 13.048943 
835.000000	 12.889331 
832.500000	 12.770545 
830.000000	 12.647159 
827.500000	 12.573269 
825.000000	 12.494981 
822.500000	 12.447940 
820.000000	 12.320225 
817.500000	 12.257204 
815.000000	 12.163127 
812.500000	 12.124829 
810.000000	 12.088393 
807.500000	 12.022414 
805.000000	 11.932923 
802.500000	 11.854336 
800.000000	 11.806854 
797.500000	 11.784109 
795.000000	 11.737284 
792.500000	 11.694301 
790.000000	 11.631949 
787.500000	 11.582218 
785.000000	 11.564126 
782.500000	 11.496362 
780.000000	 11.469528 
777.500000	 11.434835 
775.000000	 11.409110 
772.500000	 11.350636 
770.000000	 11.289163 
767.500000	 11.262902 
765.000000	 11.237785 
762.500000	 11.216168 
760.000000	 11.183973 
757.500000	 11.149439 
755.000000	 11.102685 
752.500000	 11.095631 
750.000000	 11.064001 
747.500000	 11.039958 
745.000000	 11.010305 
742.500000	 10.949524 
740.000000	 10.928344 
737.500000	 10.912249 
735.000000	 10.911045 
732.500000	 10.851198 
730.000000	 10.813709 
727.500000	 10.808874 
725.000000	 10.804284 
722.500000	 10.782034 
720.000000	 10.740644 
717.500000	 10.678768 
715.000000	 10.645384 
712.500000	 10.652563 
710.000000	 10.628645 
707.500000	 10.587843 
705.000000	 10.566958 
702.500000	 10.527045 
700.000000	 10.478905 
697.500000	 10.432003 
695.000000	 10.425291 
692.500000	 10.400335 
690.000000	 10.404772 
687.500000	 10.356066 
685.000000	 10.319895 
682.500000	 10.294194 
680.000000	 10.269522 
677.500000	 10.259359 
675.000000	 10.235001 
672.500000	 10.201621 
670.000000	 10.189626 
667.500000	 10.173995 
665.000000	 10.165194 
662.500000	 10.144712 
660.000000	 10.100854 
657.500000	 10.074377 
655.000000	 10.059795 
652.500000	 10.047410 
650.000000	 10.029423 
647.500000	 10.023065 
645.000000	 10.000288 
642.500000	 9.991066  
640.000000	 9.952614  
637.500000	 9.932677  
635.000000	 9.907804  
632.500000	 9.885659  
630.000000	 9.871036  
627.500000	 9.854853  
625.000000	 9.846902  
622.500000	 9.817309  
620.000000	 9.797644  
617.500000	 9.779057  
615.000000	 9.780391  
612.500000	 9.760412  
610.000000	 9.744768  
607.500000	 9.717597  
605.000000	 9.709002  
602.500000	 9.686932  
600.000000	 9.672089  
597.500000	 9.642552  
595.000000	 9.636887  
592.500000	 9.619467  
590.000000	 9.600107  
587.500000	 9.580836  
585.000000	 9.557007  
582.500000	 9.536541  
580.000000	 9.528677  
577.500000	 9.528821  
575.000000	 9.503372  
572.500000	 9.493520  
570.000000	 9.470342  
567.500000	 9.461156  
565.000000	 9.436203  
562.500000	 9.416995  
560.000000	 9.390772  
557.500000	 9.375268  
555.000000	 9.350524  
552.500000	 9.334847  
550.000000	 9.326471  
547.500000	 9.317608  
545.000000	 9.300193  
542.500000	 9.278701  
540.000000	 9.263337  
537.500000	 9.247840  
535.000000	 9.237314  
532.500000	 9.204689  
530.000000	 9.180027  
527.500000	 9.164925  
525.000000	 9.125180  
522.500000	 9.092957  
520.000000	 9.057753  
517.500000	 9.004077  
515.000000	 8.931293  
512.500000	 8.834391  
510.000000	 8.734605  
507.500000	 8.625474  
505.000000	 8.520512  
502.500000	 8.437411  
500.000000	 8.404545  
497.500000	 8.414194  
495.000000	 8.459896  
492.500000	 8.495666  
490.000000	 8.510764  
487.500000	 8.496880  
485.000000	 8.485868  
482.500000	 8.480945  
480.000000	 8.466920  
477.500000	 8.444898  
475.000000	 8.402856  
472.500000	 8.366363  
470.000000	 8.314916  
467.500000	 8.262900  
465.000000	 8.206671  
462.500000	 8.160570  
460.000000	 8.106961  
457.500000	 8.072206  
455.000000	 8.054987  
452.500000	 8.050801  
450.000000	 8.056379  
447.500000	 8.046764  
445.000000	 8.033967  
442.500000	 8.004471  
440.000000	 7.985711  
437.500000	 7.957776  
435.000000	 7.921634  
432.500000	 7.894043  
430.000000	 7.865766  
427.500000	 7.829292  
425.000000	 7.809697  
422.500000	 7.772211  
420.000000	 7.744955  
417.500000	 7.718267  
415.000000	 7.679429  
412.500000	 7.648679  
410.000000	 7.629933  
407.500000	 7.594263  
405.000000	 7.546691  
402.500000	 7.524631  
400.000000	 7.487243  
397.500000	 7.438391  
395.000000	 7.395790  
392.500000	 7.354213  
390.000000	 7.300960  
387.500000	 7.215085  
385.000000	 7.153941  
382.500000	 7.096109  
380.000000	 7.054913  
377.500000	 7.025929  
375.000000	 7.004105  
372.500000	 6.971682  
370.000000	 6.950852  
367.500000	 6.896454  
365.000000	 6.844307  
362.500000	 6.797868  
360.000000	 6.727629  
357.500000	 6.650008  
355.000000	 6.581919  
352.500000	 6.513747  
350.000000	 6.387532  

