Spectrum: G090903T
Comment:  testkit, m. klarglas
No. of data points: 201
Data interval: -2,00
Abscissa units: NM
Ordinate units: %T

Abscissa Ordinate
-------------------
 350,00  0,0001
 355,00  -0,000
 360,00  0,0002
 365,00  -0,000
 370,00  0,0009
 375,00  0,1940
 380,00  1,9899
 385,00  7,6695
 390,00  5,5707
 395,00  8,5273
 400,00  3,8872
 405,00  1,5635
 410,00  3,9140
 415,00  13,275
 420,00  17,837
 425,00  22,512
 430,00  22,792
 435,00  26,988
 440,00  34,999
 445,00  42,687
 450,00  47,833
 455,00  41,115
 460,00  28,864
 465,00  23,826
 470,00  22,925
 475,00  21,237
 480,00  19,456
 485,00  14,466
 490,00  6,1509
 495,00  2,4379
 500,00  1,2491
 505,00  0,8831
 510,00  0,7959
 515,00  0,9133
 520,00  1,2849
 525,00  2,2539
 530,00  4,6079
 535,00  10,151
 540,00  17,497
 545,00  20,823
 550,00  21,810
 555,00  24,135
 560,00  28,862
 565,00  35,977
 570,00  44,039
 575,00  50,730
 580,00  55,289
 585,00  58,881
 590,00  63,371
 595,00  69,608
 600,00  76,825
 605,00  82,605
 610,00  85,692
 615,00  85,437
 620,00  83,498
 625,00  80,332
 630,00  76,218
 635,00  71,088
 640,00  65,271
 645,00  58,820
 650,00  52,002
 655,00  45,006
 660,00  37,854
 665,00  31,358
 670,00  25,768
 675,00  21,292
 680,00  17,632
 685,00  14,579
 690,00  11,943
 695,00  9,5988
 700,00  7,5154
 705,00  5,8301
 710,00  4,4881
 715,00  3,4975
 720,00  2,7781
 725,00  2,2630
 730,00  1,9023
 735,00  1,6486
 740,00  1,4763
 745,00  1,3666
 750,00  1,3024
