PE UV                   SPECTRUM    ASCII       PEDS        1.5         
  -1
BG-40C.SP
96/07/31
14:33:17.00
96/07/31
14:33:17.00
FINN POULSEN
BG-40 SCHOTT FARVEGLAS TYKKELSE 1MM. MRK.C
350.000000
1









4444

SCAN
1
1


0.0

2.00
MANUAL



UV/VIS




































#HDR
-1
-1
#GR
NM
%T
0.00002384185791015625
0.0
1100.000000
2.500000
301
8
90.853017
0.143324
#DATA
1100.000000	1.605256  
1097.500000	1.560198  
1095.000000	1.512293  
1092.500000	1.468992  
1090.000000	1.438399  
1087.500000	1.386007  
1085.000000	1.345067  
1082.500000	1.291485  
1080.000000	1.262275  
1077.500000	1.213392  
1075.000000	1.182986  
1072.500000	1.140511  
1070.000000	1.116375  
1067.500000	1.080374  
1065.000000	1.034292  
1062.500000	1.003274  
1060.000000	0.972242  
1057.500000	0.943432  
1055.000000	0.921658  
1052.500000	0.887238  
1050.000000	0.854614  
1047.500000	0.835782  
1045.000000	0.811540  
1042.500000	0.785466  
1040.000000	0.756029  
1037.500000	0.724438  
1035.000000	0.701437  
1032.500000	0.681568  
1030.000000	0.663364  
1027.500000	0.644958  
1025.000000	0.626515  
1022.500000	0.604034  
1020.000000	0.587698  
1017.500000	0.572438  
1015.000000	0.553176  
1012.500000	0.536775  
1010.000000	0.518099  
1007.500000	0.502373  
1005.000000	0.487394  
1002.500000	0.471165  
1000.000000	0.456533  
997.500000	 0.441999  
995.000000	 0.431160  
992.500000	 0.416512  
990.000000	 0.400079  
987.500000	 0.388904  
985.000000	 0.377591  
982.500000	 0.368804  
980.000000	 0.358590  
977.500000	 0.343727  
975.000000	 0.334412  
972.500000	 0.324337  
970.000000	 0.316829  
967.500000	 0.305064  
965.000000	 0.299706  
962.500000	 0.287957  
960.000000	 0.275902  
957.500000	 0.267246  
955.000000	 0.262010  
952.500000	 0.253539  
950.000000	 0.242368  
947.500000	 0.240248  
945.000000	 0.240804  
942.500000	 0.234462  
940.000000	 0.223315  
937.500000	 0.214454  
935.000000	 0.218549  
932.500000	 0.214828  
930.000000	 0.203905  
927.500000	 0.199772  
925.000000	 0.194953  
922.500000	 0.192996  
920.000000	 0.189087  
917.500000	 0.188686  
915.000000	 0.194211  
912.500000	 0.180040  
910.000000	 0.179092  
907.500000	 0.175671  
905.000000	 0.173547  
902.500000	 0.167667  
900.000000	 0.161721  
897.500000	 0.160342  
895.000000	 0.169847  
892.500000	 0.172323  
890.000000	 0.169421  
887.500000	 0.163980  
885.000000	 0.154245  
882.500000	 0.150301  
880.000000	 0.172680  
877.500000	 0.148572  
875.000000	 0.143324  
872.500000	 0.145529  
870.000000	 0.154008  
867.500000	 0.157238  
865.000000	 0.167785  
862.500000	 0.169354  
860.000000	 0.186135  
857.500000	 0.153593  
855.000000	 0.171467  
852.500000	 0.165236  
850.000000	 0.174296  
847.500000	 0.178689  
845.000000	 0.182392  
842.500000	 0.182415  
840.000000	 0.189536  
837.500000	 0.195600  
835.000000	 0.196503  
832.500000	 0.204815  
830.000000	 0.212192  
827.500000	 0.218511  
825.000000	 0.229700  
822.500000	 0.244683  
820.000000	 0.253127  
817.500000	 0.264108  
815.000000	 0.272991  
812.500000	 0.291736  
810.000000	 0.308973  
807.500000	 0.324885  
805.000000	 0.342657  
802.500000	 0.362973  
800.000000	 0.386446  
797.500000	 0.413379  
795.000000	 0.435929  
792.500000	 0.470459  
790.000000	 0.504258  
787.500000	 0.534918  
785.000000	 0.576431  
782.500000	 0.625299  
780.000000	 0.669503  
777.500000	 0.721669  
775.000000	 0.780095  
772.500000	 0.841949  
770.000000	 0.914947  
767.500000	 0.990223  
765.000000	 1.075417  
762.500000	 1.166824  
760.000000	 1.273310  
757.500000	 1.387055  
755.000000	 1.511717  
752.500000	 1.643272  
750.000000	 1.799518  
747.500000	 1.963199  
745.000000	 2.142752  
742.500000	 2.345152  
740.000000	 2.561264  
737.500000	 2.799443  
735.000000	 3.067971  
732.500000	 3.349435  
730.000000	 3.656747  
727.500000	 3.995236  
725.000000	 4.373985  
722.500000	 4.782680  
720.000000	 5.216257  
717.500000	 5.687207  
715.000000	 6.200746  
712.500000	 6.757094  
710.000000	 7.347553  
707.500000	 7.977916  
705.000000	 8.672044  
702.500000	 9.420631  
700.000000	 10.210723 
697.500000	 11.067759 
695.000000	 11.967185 
692.500000	 12.911276 
690.000000	 13.922880 
687.500000	 14.997124 
685.000000	 16.117201 
682.500000	 17.306156 
680.000000	 18.557079 
677.500000	 19.861630 
675.000000	 21.235291 
672.500000	 22.635445 
670.000000	 24.075515 
667.500000	 25.599331 
665.000000	 27.169652 
662.500000	 28.810810 
660.000000	 30.483378 
657.500000	 32.171464 
655.000000	 33.915567 
652.500000	 35.711488 
650.000000	 37.488791 
647.500000	 39.335844 
645.000000	 41.243350 
642.500000	 43.072272 
640.000000	 44.909230 
637.500000	 46.793817 
635.000000	 48.641881 
632.500000	 50.553821 
630.000000	 52.371507 
627.500000	 54.211789 
625.000000	 56.029623 
622.500000	 57.854469 
620.000000	 59.578489 
617.500000	 61.333790 
615.000000	 63.048043 
612.500000	 64.652762 
610.000000	 66.202797 
607.500000	 67.759941 
605.000000	 69.271775 
602.500000	 70.770523 
600.000000	 72.100168 
597.500000	 73.453149 
595.000000	 74.694941 
592.500000	 75.885250 
590.000000	 76.928664 
587.500000	 78.090203 
585.000000	 79.228270 
582.500000	 80.128856 
580.000000	 81.010566 
577.500000	 81.978264 
575.000000	 82.802541 
572.500000	 83.564784 
570.000000	 84.344068 
567.500000	 84.968462 
565.000000	 85.581599 
562.500000	 86.115568 
560.000000	 86.679697 
557.500000	 87.189848 
555.000000	 87.547158 
552.500000	 87.887930 
550.000000	 88.272071 
547.500000	 88.598618 
545.000000	 88.902485 
542.500000	 89.278478 
540.000000	 89.442675 
537.500000	 89.595436 
535.000000	 89.795732 
532.500000	 90.010042 
530.000000	 90.127109 
527.500000	 90.213310 
525.000000	 90.346407 
522.500000	 90.404227 
520.000000	 90.504188 
517.500000	 90.612261 
515.000000	 90.664936 
512.500000	 90.678762 
510.000000	 90.722512 
507.500000	 90.734056 
505.000000	 90.770013 
502.500000	 90.801065 
500.000000	 90.832885 
497.500000	 90.826207 
495.000000	 90.810171 
492.500000	 90.853017 
490.000000	 90.821129 
487.500000	 90.757952 
485.000000	 90.736797 
482.500000	 90.709646 
480.000000	 90.703382 
477.500000	 90.659078 
475.000000	 90.658032 
472.500000	 90.646752 
470.000000	 90.539013 
467.500000	 90.544868 
465.000000	 90.569793 
462.500000	 90.485334 
460.000000	 90.480595 
457.500000	 90.460205 
455.000000	 90.367496 
452.500000	 90.293068 
450.000000	 90.251335 
447.500000	 90.242405 
445.000000	 90.142504 
442.500000	 90.042698 
440.000000	 90.031594 
437.500000	 90.018484 
435.000000	 89.890312 
432.500000	 89.957243 
430.000000	 89.919358 
427.500000	 89.762294 
425.000000	 89.708653 
422.500000	 89.669550 
420.000000	 89.484542 
417.500000	 89.431388 
415.000000	 89.494930 
412.500000	 89.417518 
410.000000	 89.191505 
407.500000	 89.084500 
405.000000	 89.020305 
402.500000	 88.910375 
400.000000	 88.805226 
397.500000	 88.700875 
395.000000	 88.581617 
392.500000	 88.418521 
390.000000	 88.361286 
387.500000	 88.257312 
385.000000	 88.041234 
382.500000	 87.823750 
380.000000	 87.634422 
377.500000	 87.473803 
375.000000	 87.151972 
372.500000	 86.904419 
370.000000	 86.582483 
367.500000	 86.319216 
365.000000	 85.967256 
362.500000	 85.603039 
360.000000	 85.114594 
357.500000	 84.586478 
355.000000	 83.922637 
352.500000	 83.259342 
350.000000	 82.221192 

