PE UV                   SPECTRUM    ASCII       PEDS        1.5         
  -1
BG-40J.SP
96/07/31
15:01:26.00
96/07/31
15:01:26.00
FINN POULSEN
BG-40 SCHOTT FARVEGLAS TYKKELSE 1MM. MRKJ.
350.000000
1









4444

SCAN
1
1


0.0

2.00
MANUAL



UV/VIS




































#HDR
-1
-1
#GR
NM
%T
0.00002384185791015625
0.0
1100.000000
2.500000
301
8
90.882524
0.164226
#DATA
1100.000000	1.693616  
1097.500000	1.643584  
1095.000000	1.596886  
1092.500000	1.552340  
1090.000000	1.519586  
1087.500000	1.464530  
1085.000000	1.419338  
1082.500000	1.365006  
1080.000000	1.332795  
1077.500000	1.284972  
1075.000000	1.252568  
1072.500000	1.205395  
1070.000000	1.171935  
1067.500000	1.145124  
1065.000000	1.106595  
1062.500000	1.063672  
1060.000000	1.030811  
1057.500000	1.002300  
1055.000000	0.977259  
1052.500000	0.942670  
1050.000000	0.906031  
1047.500000	0.881191  
1045.000000	0.861610  
1042.500000	0.835002  
1040.000000	0.804165  
1037.500000	0.772469  
1035.000000	0.748815  
1032.500000	0.728973  
1030.000000	0.708654  
1027.500000	0.686650  
1025.000000	0.667157  
1022.500000	0.645644  
1020.000000	0.626068  
1017.500000	0.609710  
1015.000000	0.590815  
1012.500000	0.572031  
1010.000000	0.553630  
1007.500000	0.537432  
1005.000000	0.522217  
1002.500000	0.506394  
1000.000000	0.489794  
997.500000	 0.473289  
995.000000	 0.459463  
992.500000	 0.445286  
990.000000	 0.431517  
987.500000	 0.418062  
985.000000	 0.403498  
982.500000	 0.394199  
980.000000	 0.384272  
977.500000	 0.371024  
975.000000	 0.358319  
972.500000	 0.345711  
970.000000	 0.339250  
967.500000	 0.332754  
965.000000	 0.319163  
962.500000	 0.311113  
960.000000	 0.300515  
957.500000	 0.290009  
955.000000	 0.280637  
952.500000	 0.275020  
950.000000	 0.265772  
947.500000	 0.259938  
945.000000	 0.257849  
942.500000	 0.250341  
940.000000	 0.239083  
937.500000	 0.228806  
935.000000	 0.232226  
932.500000	 0.230143  
930.000000	 0.220951  
927.500000	 0.221739  
925.000000	 0.218216  
922.500000	 0.208323  
920.000000	 0.209153  
917.500000	 0.205495  
915.000000	 0.205616  
912.500000	 0.203862  
910.000000	 0.202749  
907.500000	 0.195416  
905.000000	 0.184819  
902.500000	 0.178720  
900.000000	 0.183137  
897.500000	 0.171933  
895.000000	 0.185166  
892.500000	 0.187345  
890.000000	 0.180349  
887.500000	 0.167803  
885.000000	 0.169535  
882.500000	 0.164226  
880.000000	 0.182320  
877.500000	 0.178307  
875.000000	 0.166827  
872.500000	 0.174494  
870.000000	 0.177761  
867.500000	 0.171463  
865.000000	 0.189838  
862.500000	 0.188378  
860.000000	 0.176633  
857.500000	 0.178430  
855.000000	 0.186888  
852.500000	 0.183880  
850.000000	 0.185247  
847.500000	 0.188880  
845.000000	 0.190341  
842.500000	 0.201080  
840.000000	 0.203797  
837.500000	 0.208913  
835.000000	 0.215232  
832.500000	 0.223794  
830.000000	 0.231531  
827.500000	 0.238203  
825.000000	 0.248992  
822.500000	 0.258915  
820.000000	 0.272992  
817.500000	 0.285197  
815.000000	 0.296882  
812.500000	 0.314499  
810.000000	 0.327719  
807.500000	 0.347752  
805.000000	 0.368380  
802.500000	 0.391004  
800.000000	 0.411552  
797.500000	 0.435507  
795.000000	 0.468635  
792.500000	 0.502331  
790.000000	 0.532436  
787.500000	 0.568950  
785.000000	 0.608338  
782.500000	 0.659842  
780.000000	 0.712265  
777.500000	 0.764217  
775.000000	 0.827722  
772.500000	 0.889654  
770.000000	 0.962310  
767.500000	 1.043893  
765.000000	 1.137078  
762.500000	 1.234081  
760.000000	 1.339263  
757.500000	 1.457096  
755.000000	 1.588250  
752.500000	 1.728953  
750.000000	 1.887008  
747.500000	 2.050347  
745.000000	 2.241013  
742.500000	 2.446997  
740.000000	 2.678344  
737.500000	 2.925206  
735.000000	 3.188447  
732.500000	 3.490803  
730.000000	 3.808290  
727.500000	 4.151412  
725.000000	 4.541889  
722.500000	 4.962461  
720.000000	 5.408119  
717.500000	 5.889862  
715.000000	 6.414903  
712.500000	 6.981137  
710.000000	 7.578664  
707.500000	 8.231705  
705.000000	 8.941779  
702.500000	 9.695729  
700.000000	 10.489924 
697.500000	 11.361300 
695.000000	 12.268418 
692.500000	 13.228450 
690.000000	 14.257592 
687.500000	 15.342716 
685.000000	 16.485232 
682.500000	 17.681040 
680.000000	 18.924090 
677.500000	 20.250448 
675.000000	 21.624348 
672.500000	 23.027458 
670.000000	 24.491204 
667.500000	 26.009389 
665.000000	 27.602276 
662.500000	 29.216762 
660.000000	 30.895106 
657.500000	 32.593152 
655.000000	 34.349543 
652.500000	 36.099378 
650.000000	 37.960354 
647.500000	 39.847217 
645.000000	 41.643434 
642.500000	 43.509891 
640.000000	 45.338877 
637.500000	 47.185390 
635.000000	 49.061370 
632.500000	 50.934239 
630.000000	 52.810773 
627.500000	 54.567499 
625.000000	 56.351358 
622.500000	 58.140162 
620.000000	 59.875442 
617.500000	 61.604457 
615.000000	 63.335512 
612.500000	 64.946958 
610.000000	 66.459861 
607.500000	 68.007441 
605.000000	 69.483557 
602.500000	 71.014291 
600.000000	 72.379497 
597.500000	 73.750956 
595.000000	 74.936830 
592.500000	 76.118591 
590.000000	 77.174661 
587.500000	 78.267440 
585.000000	 79.375859 
582.500000	 80.306092 
580.000000	 81.153476 
577.500000	 82.107896 
575.000000	 82.896739 
572.500000	 83.616151 
570.000000	 84.339964 
567.500000	 85.035314 
565.000000	 85.684004 
562.500000	 86.156662 
560.000000	 86.665374 
557.500000	 87.185125 
555.000000	 87.589099 
552.500000	 88.025971 
550.000000	 88.355105 
547.500000	 88.624681 
545.000000	 88.834418 
542.500000	 89.198587 
540.000000	 89.482461 
537.500000	 89.641843 
535.000000	 89.861669 
532.500000	 89.984927 
530.000000	 90.100492 
527.500000	 90.177126 
525.000000	 90.323469 
522.500000	 90.457126 
520.000000	 90.581400 
517.500000	 90.642891 
515.000000	 90.699196 
512.500000	 90.742670 
510.000000	 90.757351 
507.500000	 90.799149 
505.000000	 90.852469 
502.500000	 90.861060 
500.000000	 90.881925 
497.500000	 90.838751 
495.000000	 90.839660 
492.500000	 90.882524 
490.000000	 90.871619 
487.500000	 90.788589 
485.000000	 90.766642 
482.500000	 90.763516 
480.000000	 90.776082 
477.500000	 90.743305 
475.000000	 90.726252 
472.500000	 90.705706 
470.000000	 90.649707 
467.500000	 90.645513 
465.000000	 90.627080 
462.500000	 90.515495 
460.000000	 90.558191 
457.500000	 90.530655 
455.000000	 90.489683 
452.500000	 90.419033 
450.000000	 90.402001 
447.500000	 90.342088 
445.000000	 90.296745 
442.500000	 90.225343 
440.000000	 90.161518 
437.500000	 90.115376 
435.000000	 90.030302 
432.500000	 90.078538 
430.000000	 89.987508 
427.500000	 89.826893 
425.000000	 89.713548 
422.500000	 89.709395 
420.000000	 89.657946 
417.500000	 89.644658 
415.000000	 89.606115 
412.500000	 89.570602 
410.000000	 89.385340 
407.500000	 89.315271 
405.000000	 89.262699 
402.500000	 89.106593 
400.000000	 88.988140 
397.500000	 88.904376 
395.000000	 88.823144 
392.500000	 88.625189 
390.000000	 88.504981 
387.500000	 88.369695 
385.000000	 88.200840 
382.500000	 88.133547 
380.000000	 87.975683 
377.500000	 87.667502 
375.000000	 87.354127 
372.500000	 87.210916 
370.000000	 87.055526 
367.500000	 86.639332 
365.000000	 86.245242 
362.500000	 85.909382 
360.000000	 85.380273 
357.500000	 84.806299 
355.000000	 84.183339 
352.500000	 83.571887 
350.000000	 82.535190 

