PE UV       SUBTECH     SPECTRUM    ASCII       PEDS        1.5         
  -1
OPALRETG.SP
96/08/07
14:12:38.00
96/08/07
14:30:20.00
FINN POULSEN
OPALGLAS COLORANALYSATOR. RETTET TRANSMITTANS. G
350.000000
1









4444

SCAN
1
1


0.0

2.00
MANUAL



UV/VIS




































#HDR
-1
-1
#GR
NM
%T
0.00002384185791015625
0.0
1100.000000
2.500000
301
8
59.147773
6.404664
#DATA
1100.000000	59.147773 
1097.500000	58.199901 
1095.000000	57.265019 
1092.500000	56.383307 
1090.000000	55.489061 
1087.500000	54.430576 
1085.000000	53.575110 
1082.500000	52.706943 
1080.000000	51.780403 
1077.500000	50.933413 
1075.000000	50.084046 
1072.500000	49.124500 
1070.000000	48.195208 
1067.500000	47.244969 
1065.000000	46.372240 
1062.500000	45.460945 
1060.000000	44.630057 
1057.500000	43.792625 
1055.000000	42.910270 
1052.500000	42.066877 
1050.000000	41.304379 
1047.500000	40.533532 
1045.000000	39.770095 
1042.500000	39.027525 
1040.000000	38.309579 
1037.500000	37.603322 
1035.000000	36.904541 
1032.500000	36.244127 
1030.000000	35.572987 
1027.500000	34.897665 
1025.000000	34.248169 
1022.500000	33.651249 
1020.000000	33.021043 
1017.500000	32.387947 
1015.000000	31.813305 
1012.500000	31.252742 
1010.000000	30.720183 
1007.500000	30.209203 
1005.000000	29.702468 
1002.500000	29.198897 
1000.000000	28.703661 
997.500000	 28.232072 
995.000000	 27.768173 
992.500000	 27.322939 
990.000000	 26.897767 
987.500000	 26.471788 
985.000000	 26.045760 
982.500000	 25.614734 
980.000000	 25.184264 
977.500000	 24.740488 
975.000000	 24.294320 
972.500000	 23.857091 
970.000000	 23.465107 
967.500000	 23.034940 
965.000000	 22.585451 
962.500000	 22.203634 
960.000000	 21.841387 
957.500000	 21.503351 
955.000000	 21.146682 
952.500000	 20.800111 
950.000000	 20.470424 
947.500000	 20.127950 
945.000000	 19.806632 
942.500000	 19.477772 
940.000000	 19.175670 
937.500000	 18.882267 
935.000000	 18.579280 
932.500000	 18.342080 
930.000000	 18.059727 
927.500000	 17.813528 
925.000000	 17.569030 
922.500000	 17.313835 
920.000000	 17.082788 
917.500000	 16.845185 
915.000000	 16.575001 
912.500000	 16.359527 
910.000000	 16.122164 
907.500000	 15.943946 
905.000000	 15.774300 
902.500000	 15.611544 
900.000000	 15.413805 
897.500000	 15.256212 
895.000000	 15.040857 
892.500000	 14.874241 
890.000000	 14.666773 
887.500000	 14.482418 
885.000000	 14.356894 
882.500000	 14.195214 
880.000000	 14.074061 
877.500000	 13.950543 
875.000000	 13.808803 
872.500000	 13.672537 
870.000000	 13.444416 
867.500000	 13.326023 
865.000000	 13.222191 
862.500000	 13.096473 
860.000000	 13.300930 
857.500000	 14.068021 
855.000000	 13.782885 
852.500000	 13.642078 
850.000000	 13.555707 
847.500000	 13.445572 
845.000000	 13.204935 
842.500000	 13.096620 
840.000000	 13.051512 
837.500000	 12.952106 
835.000000	 12.799143 
832.500000	 12.710308 
830.000000	 12.636527 
827.500000	 12.560392 
825.000000	 12.470231 
822.500000	 12.365439 
820.000000	 12.276078 
817.500000	 12.222077 
815.000000	 12.144079 
812.500000	 12.092012 
810.000000	 12.017567 
807.500000	 12.011928 
805.000000	 11.936068 
802.500000	 11.872582 
800.000000	 11.790116 
797.500000	 11.774299 
795.000000	 11.720672 
792.500000	 11.707534 
790.000000	 11.694567 
787.500000	 11.612511 
785.000000	 11.573066 
782.500000	 11.546228 
780.000000	 11.500736 
777.500000	 11.454921 
775.000000	 11.408573 
772.500000	 11.377927 
770.000000	 11.351281 
767.500000	 11.318378 
765.000000	 11.277876 
762.500000	 11.247421 
760.000000	 11.233424 
757.500000	 11.212070 
755.000000	 11.164080 
752.500000	 11.164869 
750.000000	 11.113006 
747.500000	 11.102752 
745.000000	 11.078549 
742.500000	 11.032074 
740.000000	 11.014455 
737.500000	 11.004784 
735.000000	 10.962913 
732.500000	 10.916849 
730.000000	 10.899720 
727.500000	 10.883468 
725.000000	 10.852361 
722.500000	 10.848459 
720.000000	 10.816800 
717.500000	 10.756924 
715.000000	 10.722051 
712.500000	 10.718130 
710.000000	 10.713222 
707.500000	 10.663430 
705.000000	 10.650182 
702.500000	 10.605160 
700.000000	 10.593257 
697.500000	 10.557597 
695.000000	 10.516088 
692.500000	 10.482870 
690.000000	 10.482256 
687.500000	 10.437124 
685.000000	 10.401531 
682.500000	 10.379197 
680.000000	 10.364930 
677.500000	 10.352642 
675.000000	 10.321016 
672.500000	 10.298020 
670.000000	 10.270802 
667.500000	 10.231497 
665.000000	 10.221843 
662.500000	 10.219303 
660.000000	 10.186777 
657.500000	 10.161900 
655.000000	 10.136644 
652.500000	 10.142479 
650.000000	 10.108613 
647.500000	 10.084400 
645.000000	 10.045405 
642.500000	 10.021279 
640.000000	 10.006944 
637.500000	 9.989957  
635.000000	 9.963886  
632.500000	 9.957751  
630.000000	 9.951800  
627.500000	 9.934616  
625.000000	 9.928559  
622.500000	 9.912466  
620.000000	 9.888187  
617.500000	 9.864316  
615.000000	 9.853923  
612.500000	 9.847621  
610.000000	 9.831388  
607.500000	 9.793900  
605.000000	 9.770559  
602.500000	 9.757592  
600.000000	 9.754396  
597.500000	 9.725844  
595.000000	 9.705156  
592.500000	 9.695054  
590.000000	 9.670788  
587.500000	 9.645555  
585.000000	 9.636646  
582.500000	 9.630072  
580.000000	 9.616078  
577.500000	 9.598875  
575.000000	 9.582390  
572.500000	 9.566490  
570.000000	 9.539739  
567.500000	 9.520087  
565.000000	 9.502914  
562.500000	 9.499965  
560.000000	 9.483834  
557.500000	 9.447941  
555.000000	 9.427186  
552.500000	 9.410624  
550.000000	 9.388998  
547.500000	 9.375513  
545.000000	 9.360965  
542.500000	 9.357203  
540.000000	 9.337216  
537.500000	 9.311602  
535.000000	 9.304608  
532.500000	 9.285734  
530.000000	 9.265409  
527.500000	 9.236698  
525.000000	 9.206599  
522.500000	 9.171290  
520.000000	 9.123500  
517.500000	 9.060938  
515.000000	 8.987765  
512.500000	 8.889158  
510.000000	 8.791248  
507.500000	 8.676724  
505.000000	 8.566169  
502.500000	 8.492601  
500.000000	 8.461814  
497.500000	 8.463811  
495.000000	 8.496644  
492.500000	 8.533726  
490.000000	 8.548949  
487.500000	 8.554406  
485.000000	 8.561465  
482.500000	 8.543906  
480.000000	 8.509078  
477.500000	 8.485251  
475.000000	 8.450678  
472.500000	 8.401097  
470.000000	 8.359970  
467.500000	 8.316640  
465.000000	 8.256168  
462.500000	 8.198565  
460.000000	 8.149257  
457.500000	 8.108800  
455.000000	 8.100104  
452.500000	 8.100816  
450.000000	 8.101540  
447.500000	 8.089003  
445.000000	 8.078486  
442.500000	 8.058693  
440.000000	 8.031451  
437.500000	 7.993428  
435.000000	 7.963197  
432.500000	 7.953751  
430.000000	 7.917488  
427.500000	 7.885343  
425.000000	 7.852880  
422.500000	 7.816837  
420.000000	 7.778814  
417.500000	 7.748600  
415.000000	 7.710476  
412.500000	 7.674934  
410.000000	 7.655068  
407.500000	 7.613333  
405.000000	 7.575490  
402.500000	 7.550519  
400.000000	 7.515168  
397.500000	 7.475771  
395.000000	 7.433710  
392.500000	 7.369402  
390.000000	 7.324706  
387.500000	 7.270321  
385.000000	 7.191650  
382.500000	 7.128122  
380.000000	 7.055613  
377.500000	 7.031226  
375.000000	 7.020719  
372.500000	 6.963305  
370.000000	 6.932185  
367.500000	 6.894075  
365.000000	 6.854101  
362.500000	 6.800371  
360.000000	 6.727019  
357.500000	 6.642527  
355.000000	 6.567457  
352.500000	 6.497074  
350.000000	 6.404664  

