PE UV                   SPECTRUM    ASCII       PEDS        1.5         
  -1
OPALRETB.SP
96/08/07
13:40:30.00
96/08/07
13:40:30.00
FINN POULSEN
OPALGLAS COLORANALYSATOR. RETTET TRANSMITTANS. B
350.000000
1









4444

SCAN
1
1


0.0

2.00
MANUAL



UV/VIS




































#HDR
-1
-1
#GR
NM
%T
0.00002384185791015625
0.0
1100.000000
2.500000
301
8
51.136552
5.611614
#DATA
1100.000000	51.136552 
1097.500000	50.200727 
1095.000000	49.283258 
1092.500000	48.409719 
1090.000000	47.535565 
1087.500000	46.536007 
1085.000000	45.681468 
1082.500000	44.801543 
1080.000000	43.878282 
1077.500000	43.054970 
1075.000000	42.221198 
1072.500000	41.342603 
1070.000000	40.553835 
1067.500000	39.738937 
1065.000000	38.993834 
1062.500000	38.214936 
1060.000000	37.494692 
1057.500000	36.777921 
1055.000000	36.028911 
1052.500000	35.304477 
1050.000000	34.633024 
1047.500000	33.961840 
1045.000000	33.306552 
1042.500000	32.670560 
1040.000000	32.057464 
1037.500000	31.456569 
1035.000000	30.851319 
1032.500000	30.277529 
1030.000000	29.723303 
1027.500000	29.176185 
1025.000000	28.644054 
1022.500000	28.158796 
1020.000000	27.624237 
1017.500000	27.071135 
1015.000000	26.565372 
1012.500000	26.096575 
1010.000000	25.625838 
1007.500000	25.177308 
1005.000000	24.758662 
1002.500000	24.333818 
1000.000000	23.918106 
997.500000	 23.526226 
995.000000	 23.141492 
992.500000	 22.778800 
990.000000	 22.421638 
987.500000	 22.060532 
985.000000	 21.710975 
982.500000	 21.359057 
980.000000	 21.034061 
977.500000	 20.690421 
975.000000	 20.313935 
972.500000	 19.957089 
970.000000	 19.611320 
967.500000	 19.240891 
965.000000	 18.870845 
962.500000	 18.555292 
960.000000	 18.260506 
957.500000	 17.987733 
955.000000	 17.696998 
952.500000	 17.411525 
950.000000	 17.156306 
947.500000	 16.891524 
945.000000	 16.628989 
942.500000	 16.394098 
940.000000	 16.163080 
937.500000	 15.924902 
935.000000	 15.704179 
932.500000	 15.483943 
930.000000	 15.248539 
927.500000	 15.065496 
925.000000	 14.827873 
922.500000	 14.638616 
920.000000	 14.480851 
917.500000	 14.295325 
915.000000	 14.083977 
912.500000	 13.882538 
910.000000	 13.781571 
907.500000	 13.637784 
905.000000	 13.466174 
902.500000	 13.346853 
900.000000	 13.212897 
897.500000	 13.088222 
895.000000	 12.923710 
892.500000	 12.743489 
890.000000	 12.633080 
887.500000	 12.520976 
885.000000	 12.414860 
882.500000	 12.290693 
880.000000	 12.182647 
877.500000	 12.104504 
875.000000	 11.954542 
872.500000	 11.950847 
870.000000	 11.838614 
867.500000	 11.687899 
865.000000	 11.605593 
862.500000	 11.492547 
860.000000	 11.696294 
857.500000	 12.614345 
855.000000	 12.360337 
852.500000	 12.328743 
850.000000	 12.210720 
847.500000	 12.037252 
845.000000	 11.918796 
842.500000	 11.750192 
840.000000	 11.670827 
837.500000	 11.646124 
835.000000	 11.507461 
832.500000	 11.410276 
830.000000	 11.353845 
827.500000	 11.359455 
825.000000	 11.251340 
822.500000	 11.156523 
820.000000	 11.093531 
817.500000	 11.073378 
815.000000	 10.990458 
812.500000	 10.991103 
810.000000	 10.919594 
807.500000	 10.885449 
805.000000	 10.857146 
802.500000	 10.762614 
800.000000	 10.758243 
797.500000	 10.705071 
795.000000	 10.677614 
792.500000	 10.664301 
790.000000	 10.624243 
787.500000	 10.585074 
785.000000	 10.546532 
782.500000	 10.509233 
780.000000	 10.469923 
777.500000	 10.426618 
775.000000	 10.429687 
772.500000	 10.399056 
770.000000	 10.357207 
767.500000	 10.361848 
765.000000	 10.322657 
762.500000	 10.320447 
760.000000	 10.315021 
757.500000	 10.258207 
755.000000	 10.234956 
752.500000	 10.218526 
750.000000	 10.212843 
747.500000	 10.168205 
745.000000	 10.158682 
742.500000	 10.110487 
740.000000	 10.095976 
737.500000	 10.070781 
735.000000	 10.058326 
732.500000	 10.045043 
730.000000	 10.016784 
727.500000	 10.003366 
725.000000	 9.974686  
722.500000	 9.969960  
720.000000	 9.940234  
717.500000	 9.889153  
715.000000	 9.874176  
712.500000	 9.857465  
710.000000	 9.831953  
707.500000	 9.798762  
705.000000	 9.765485  
702.500000	 9.750180  
700.000000	 9.723424  
697.500000	 9.694291  
695.000000	 9.689625  
692.500000	 9.652903  
690.000000	 9.643533  
687.500000	 9.605425  
685.000000	 9.570161  
682.500000	 9.532007  
680.000000	 9.514379  
677.500000	 9.512179  
675.000000	 9.493288  
672.500000	 9.465869  
670.000000	 9.451835  
667.500000	 9.428957  
665.000000	 9.420697  
662.500000	 9.396160  
660.000000	 9.361354  
657.500000	 9.330872  
655.000000	 9.313962  
652.500000	 9.314642  
650.000000	 9.293192  
647.500000	 9.253134  
645.000000	 9.234692  
642.500000	 9.233125  
640.000000	 9.223798  
637.500000	 9.204283  
635.000000	 9.181925  
632.500000	 9.160861  
630.000000	 9.134439  
627.500000	 9.113583  
625.000000	 9.112448  
622.500000	 9.091354  
620.000000	 9.043727  
617.500000	 9.034018  
615.000000	 9.034603  
612.500000	 9.031285  
610.000000	 9.007027  
607.500000	 8.992513  
605.000000	 8.971612  
602.500000	 8.939753  
600.000000	 8.915746  
597.500000	 8.906623  
595.000000	 8.895740  
592.500000	 8.862661  
590.000000	 8.845503  
587.500000	 8.828273  
585.000000	 8.811982  
582.500000	 8.796238  
580.000000	 8.800198  
577.500000	 8.770237  
575.000000	 8.746227  
572.500000	 8.737813  
570.000000	 8.717745  
567.500000	 8.698748  
565.000000	 8.692676  
562.500000	 8.669930  
560.000000	 8.647904  
557.500000	 8.642575  
555.000000	 8.611721  
552.500000	 8.590825  
550.000000	 8.565574  
547.500000	 8.552061  
545.000000	 8.544993  
542.500000	 8.522475  
540.000000	 8.502955  
537.500000	 8.491977  
535.000000	 8.474342  
532.500000	 8.440353  
530.000000	 8.418214  
527.500000	 8.400975  
525.000000	 8.373760  
522.500000	 8.337951  
520.000000	 8.295709  
517.500000	 8.240975  
515.000000	 8.172551  
512.500000	 8.083422  
510.000000	 7.983989  
507.500000	 7.880242  
505.000000	 7.782884  
502.500000	 7.714654  
500.000000	 7.674566  
497.500000	 7.678287  
495.000000	 7.710737  
492.500000	 7.738822  
490.000000	 7.760413  
487.500000	 7.757553  
485.000000	 7.743753  
482.500000	 7.724103  
480.000000	 7.695662  
477.500000	 7.674989  
475.000000	 7.643706  
472.500000	 7.605735  
470.000000	 7.549650  
467.500000	 7.505026  
465.000000	 7.456892  
462.500000	 7.403773  
460.000000	 7.352804  
457.500000	 7.319481  
455.000000	 7.304716  
452.500000	 7.295898  
450.000000	 7.298434  
447.500000	 7.287930  
445.000000	 7.272760  
442.500000	 7.238667  
440.000000	 7.215094  
437.500000	 7.180655  
435.000000	 7.148668  
432.500000	 7.123473  
430.000000	 7.091456  
427.500000	 7.063601  
425.000000	 7.039808  
422.500000	 7.002349  
420.000000	 6.971782  
417.500000	 6.948906  
415.000000	 6.910410  
412.500000	 6.856453  
410.000000	 6.829335  
407.500000	 6.805616  
405.000000	 6.776892  
402.500000	 6.737957  
400.000000	 6.695145  
397.500000	 6.652929  
395.000000	 6.609434  
392.500000	 6.576441  
390.000000	 6.536912  
387.500000	 6.465764  
385.000000	 6.389821  
382.500000	 6.320991  
380.000000	 6.260811  
377.500000	 6.215217  
375.000000	 6.183203  
372.500000	 6.165635  
370.000000	 6.157218  
367.500000	 6.116056  
365.000000	 6.067647  
362.500000	 6.017499  
360.000000	 5.937811  
357.500000	 5.868895  
355.000000	 5.782745  
352.500000	 5.702747  
350.000000	 5.611614  

