PE UV                   SPECTRUM    ASCII       PEDS        1.5         
  -1
Z151624I.SP
96/07/31
13:57:43.00
96/07/31
13:57:43.00
FINN POULSEN
Z-FILTER NO.15160Y24. PRODUKTIONSUGE 26/96. MRK.I
350.000000
1









4444

SCAN
1
1


0.0

2.00
MANUAL



UV/VIS




































#HDR
-1
-1
#GR
NM
%T
0.00002384185791015625
0.0
1100.000000
2.500000
301
8
84.779262
-0.036454
#DATA
1100.000000	43.876210 
1097.500000	42.469241 
1095.000000	41.373583 
1092.500000	40.343727 
1090.000000	38.994856 
1087.500000	36.795722 
1085.000000	37.281396 
1082.500000	37.974107 
1080.000000	36.557644 
1077.500000	34.202929 
1075.000000	33.120423 
1072.500000	31.533431 
1070.000000	32.440763 
1067.500000	32.154918 
1065.000000	31.424352 
1062.500000	30.412232 
1060.000000	30.041527 
1057.500000	29.071140 
1055.000000	28.113380 
1052.500000	27.135228 
1050.000000	27.694642 
1047.500000	27.939467 
1045.000000	26.570126 
1042.500000	26.264037 
1040.000000	25.972767 
1037.500000	25.655139 
1035.000000	25.276080 
1032.500000	24.495058 
1030.000000	23.708477 
1027.500000	25.318364 
1025.000000	25.894827 
1022.500000	24.129119 
1020.000000	23.577476 
1017.500000	24.436755 
1015.000000	25.351247 
1012.500000	25.463222 
1010.000000	23.824300 
1007.500000	23.836898 
1005.000000	25.874777 
1002.500000	26.111007 
1000.000000	25.143009 
997.500000	 25.101854 
995.000000	 25.555140 
992.500000	 25.962306 
990.000000	 25.829848 
987.500000	 25.996270 
985.000000	 26.215525 
982.500000	 26.584516 
980.000000	 27.299671 
977.500000	 27.277882 
975.000000	 27.991733 
972.500000	 29.036029 
970.000000	 29.632483 
967.500000	 29.875452 
965.000000	 29.982485 
962.500000	 30.322546 
960.000000	 30.789375 
957.500000	 30.733687 
955.000000	 31.343919 
952.500000	 31.702835 
950.000000	 32.186686 
947.500000	 33.051956 
945.000000	 32.463860 
942.500000	 32.405285 
940.000000	 31.586254 
937.500000	 32.191744 
935.000000	 32.443895 
932.500000	 32.088793 
930.000000	 31.759519 
927.500000	 31.805778 
925.000000	 31.395069 
922.500000	 30.975551 
920.000000	 30.427583 
917.500000	 30.283394 
915.000000	 29.846054 
912.500000	 29.562788 
910.000000	 28.995181 
907.500000	 28.377688 
905.000000	 27.703357 
902.500000	 27.924538 
900.000000	 27.039583 
897.500000	 26.838827 
895.000000	 26.905132 
892.500000	 25.757779 
890.000000	 24.264388 
887.500000	 24.450660 
885.000000	 24.619180 
882.500000	 23.894798 
880.000000	 22.970054 
877.500000	 21.314063 
875.000000	 20.285936 
872.500000	 19.348961 
870.000000	 18.491705 
867.500000	 17.322519 
865.000000	 15.946408 
862.500000	 14.866412 
860.000000	 13.856293 
857.500000	 12.441288 
855.000000	 11.535798 
852.500000	 10.596008 
850.000000	 9.613035  
847.500000	 8.628723  
845.000000	 7.760581  
842.500000	 6.915986  
840.000000	 6.196854  
837.500000	 5.614230  
835.000000	 5.040215  
832.500000	 4.548491  
830.000000	 4.042879  
827.500000	 3.559095  
825.000000	 3.235146  
822.500000	 2.858497  
820.000000	 2.587408  
817.500000	 2.330638  
815.000000	 2.144091  
812.500000	 1.960893  
810.000000	 1.685471  
807.500000	 1.570243  
805.000000	 1.443982  
802.500000	 1.260351  
800.000000	 1.208981  
797.500000	 1.126101  
795.000000	 0.973826  
792.500000	 0.928481  
790.000000	 0.808813  
787.500000	 0.855820  
785.000000	 0.772814  
782.500000	 0.707422  
780.000000	 0.671627  
777.500000	 0.613001  
775.000000	 0.579500  
772.500000	 0.557304  
770.000000	 0.507359  
767.500000	 0.501854  
765.000000	 0.410293  
762.500000	 0.404451  
760.000000	 0.390287  
757.500000	 0.362834  
755.000000	 0.396349  
752.500000	 0.301364  
750.000000	 0.301297  
747.500000	 0.334690  
745.000000	 0.273544  
742.500000	 0.273551  
740.000000	 0.237257  
737.500000	 0.248298  
735.000000	 0.237237  
732.500000	 0.200976  
730.000000	 0.237171  
727.500000	 0.189758  
725.000000	 0.211970  
722.500000	 0.139501  
720.000000	 0.117138  
717.500000	 0.164574  
715.000000	 0.078142  
712.500000	 0.083675  
710.000000	 0.100390  
707.500000	 0.086543  
705.000000	 0.120064  
702.500000	 0.036309  
700.000000	 0.036276  
697.500000	 0.080964  
695.000000	 0.041904  
692.500000	 0.111576  
690.000000	 0.041825  
687.500000	 0.055766  
685.000000	 0.078124  
682.500000	 0.139438  
680.000000	 0.131200  
677.500000	 0.195258  
675.000000	 0.156236  
672.500000	 0.200848  
670.000000	 0.253955  
667.500000	 0.192828  
665.000000	 0.223576  
662.500000	 0.128538  
660.000000	 0.097817  
657.500000	 0.089425  
655.000000	 0.002794  
652.500000	 0.022366  
650.000000	 0.055890  
647.500000	 0.019578  
645.000000	 0.016786  
642.500000	 -0.008392 
640.000000	 0.061504  
637.500000	 0.005597  
635.000000	 -0.027993 
632.500000	 0.008393  
630.000000	 0.000000  
627.500000	 0.042015  
625.000000	 -0.011202 
622.500000	 -0.008404 
620.000000	 0.042006  
617.500000	 -0.008403 
615.000000	 0.014002  
612.500000	 -0.028015 
610.000000	 -0.011207 
607.500000	 0.022424  
605.000000	 -0.002804 
602.500000	 0.008417  
600.000000	 0.000000  
597.500000	 -0.002804 
595.000000	 0.011221  
592.500000	 -0.036454 
590.000000	 0.050489  
587.500000	 0.036479  
585.000000	 0.002807  
582.500000	 0.030882  
580.000000	 0.030884  
577.500000	 0.064603  
575.000000	 0.025295  
572.500000	 0.036543  
570.000000	 0.061830  
567.500000	 0.059050  
565.000000	 0.087272  
562.500000	 0.042228  
560.000000	 0.073239  
557.500000	 0.104275  
555.000000	 0.084566  
552.500000	 0.115662  
550.000000	 0.191792  
547.500000	 0.163698  
545.000000	 0.220208  
542.500000	 0.277117  
540.000000	 0.356516  
537.500000	 0.472753  
535.000000	 0.572302  
532.500000	 0.830240  
530.000000	 1.035490  
527.500000	 1.364771  
525.000000	 1.769509  
522.500000	 2.247477  
520.000000	 2.793011  
517.500000	 3.322905  
515.000000	 3.979151  
512.500000	 4.685326  
510.000000	 5.439999  
507.500000	 6.317541  
505.000000	 7.357751  
502.500000	 8.701490  
500.000000	 10.154448 
497.500000	 11.902646 
495.000000	 13.814220 
492.500000	 15.791052 
490.000000	 17.931865 
487.500000	 19.803937 
485.000000	 21.881621 
482.500000	 24.346292 
480.000000	 27.114716 
477.500000	 30.836992 
475.000000	 35.410975 
472.500000	 41.510057 
470.000000	 48.900448 
467.500000	 57.169122 
465.000000	 65.737704 
462.500000	 73.220025 
460.000000	 78.858741 
457.500000	 82.286411 
455.000000	 83.876389 
452.500000	 84.552735 
450.000000	 84.607212 
447.500000	 84.691337 
445.000000	 84.750555 
442.500000	 84.779262 
440.000000	 84.677552 
437.500000	 84.401903 
435.000000	 83.583484 
432.500000	 81.956169 
430.000000	 79.333590 
427.500000	 75.095606 
425.000000	 69.197558 
422.500000	 61.857001 
420.000000	 53.206467 
417.500000	 44.213160 
415.000000	 35.354923 
412.500000	 27.446077 
410.000000	 20.486960 
407.500000	 14.528317 
405.000000	 9.646664  
402.500000	 6.042975  
400.000000	 3.604147  
397.500000	 2.133611  
395.000000	 1.267628  
392.500000	 0.797894  
390.000000	 0.575437  
387.500000	 0.394498  
385.000000	 0.287482  
382.500000	 0.205456  
380.000000	 0.197254  
377.500000	 0.232392  
375.000000	 0.139268  
372.500000	 0.117756  
370.000000	 0.084945  
367.500000	 0.010960  
365.000000	 0.019164  
362.500000	 0.068412  
360.000000	 0.032853  
357.500000	 0.002737  
355.000000	 -0.010940 
352.500000	 0.010943  
350.000000	 0.035581  

