PE UV                   SPECTRUM    ASCII       PEDS        1.5         
  -1
Z151624J.SP
96/07/31
14:01:28.00
96/07/31
14:01:28.00
FINN POULSEN
Z-FILTER NO.15160Y24. PRODUKTIONSUGE 26/96. MRK.J
350.000000
1









4444

SCAN
1
1


0.0

2.00
MANUAL



UV/VIS




































#HDR
-1
-1
#GR
NM
%T
0.00002384185791015625
0.0
1100.000000
2.500000
301
8
84.820495
-0.030113
#DATA
1100.000000	43.771621 
1097.500000	42.316455 
1095.000000	41.202153 
1092.500000	40.137276 
1090.000000	39.254714 
1087.500000	37.255165 
1085.000000	37.805238 
1082.500000	38.698978 
1080.000000	37.563180 
1077.500000	35.229338 
1075.000000	33.796568 
1072.500000	32.435606 
1070.000000	33.386941 
1067.500000	32.728491 
1065.000000	32.068734 
1062.500000	31.436095 
1060.000000	30.625586 
1057.500000	29.471140 
1055.000000	28.625316 
1052.500000	27.414414 
1050.000000	28.083395 
1047.500000	28.533699 
1045.000000	27.216411 
1042.500000	26.446725 
1040.000000	26.161132 
1037.500000	25.794758 
1035.000000	25.670097 
1032.500000	24.481628 
1030.000000	23.473899 
1027.500000	25.092211 
1025.000000	25.539587 
1022.500000	23.768661 
1020.000000	23.467275 
1017.500000	24.485033 
1015.000000	25.500828 
1012.500000	25.636513 
1010.000000	23.824300 
1007.500000	24.016042 
1005.000000	26.127564 
1002.500000	25.914204 
1000.000000	24.506816 
997.500000	 24.461241 
995.000000	 25.192163 
992.500000	 25.403290 
990.000000	 24.958970 
987.500000	 25.173148 
985.000000	 25.758105 
982.500000	 26.410393 
980.000000	 27.112760 
977.500000	 27.820685 
975.000000	 27.621373 
972.500000	 27.965246 
970.000000	 28.782121 
967.500000	 29.526825 
965.000000	 29.953293 
962.500000	 30.405045 
960.000000	 30.770669 
957.500000	 30.552068 
955.000000	 30.632526 
952.500000	 30.957262 
950.000000	 30.821335 
947.500000	 31.451849 
945.000000	 31.405024 
942.500000	 31.739223 
940.000000	 31.129682 
937.500000	 31.767674 
935.000000	 32.027810 
932.500000	 31.853436 
930.000000	 31.799599 
927.500000	 31.538255 
925.000000	 31.702235 
922.500000	 31.698083 
920.000000	 31.092594 
917.500000	 30.466229 
915.000000	 30.101286 
912.500000	 29.672897 
910.000000	 29.030174 
907.500000	 28.364261 
905.000000	 28.149881 
902.500000	 27.209135 
900.000000	 26.634083 
897.500000	 26.798561 
895.000000	 26.704027 
892.500000	 25.757779 
890.000000	 24.889523 
887.500000	 23.998816 
885.000000	 23.594722 
882.500000	 23.368257 
880.000000	 23.314044 
877.500000	 22.183861 
875.000000	 21.166769 
872.500000	 20.324179 
870.000000	 18.996607 
867.500000	 17.800069 
865.000000	 16.767395 
862.500000	 15.146106 
860.000000	 13.968815 
857.500000	 12.372216 
855.000000	 11.389004 
852.500000	 10.412791 
850.000000	 9.363202  
847.500000	 8.426249  
845.000000	 7.541465  
842.500000	 6.660558  
840.000000	 5.999555  
837.500000	 5.414118  
835.000000	 4.917759  
832.500000	 4.459414  
830.000000	 4.079075  
827.500000	 3.656566  
825.000000	 3.404978  
822.500000	 3.003513  
820.000000	 2.632019  
817.500000	 2.350153  
815.000000	 2.135727  
812.500000	 1.991576  
810.000000	 1.821980  
807.500000	 1.715017  
805.000000	 1.558275  
802.500000	 1.344003  
800.000000	 1.259123  
797.500000	 1.153974  
795.000000	 1.004520  
792.500000	 0.953575  
790.000000	 0.850648  
787.500000	 0.839094  
785.000000	 0.783974  
782.500000	 0.710207  
780.000000	 0.674414  
777.500000	 0.635292  
775.000000	 0.526565  
772.500000	 0.476495  
770.000000	 0.448818  
767.500000	 0.473973  
765.000000	 0.390755  
762.500000	 0.365401  
760.000000	 0.362409  
757.500000	 0.346088  
755.000000	 0.387975  
752.500000	 0.287412  
750.000000	 0.276189  
747.500000	 0.320745  
745.000000	 0.267961  
742.500000	 0.245638  
740.000000	 0.223301  
737.500000	 0.253877  
735.000000	 0.192581  
732.500000	 0.184228  
730.000000	 0.192527  
727.500000	 0.145109  
725.000000	 0.178501  
722.500000	 0.086490  
720.000000	 0.108771  
717.500000	 0.142259  
715.000000	 0.083724  
712.500000	 0.036259  
710.000000	 0.027886  
707.500000	 0.092127  
705.000000	 0.064220  
702.500000	 0.025137  
700.000000	 0.050228  
697.500000	 0.047462  
695.000000	 0.041904  
692.500000	 0.044630  
690.000000	 0.002788  
687.500000	 0.036248  
685.000000	 0.041852  
682.500000	 0.136650  
680.000000	 0.125617  
677.500000	 0.150627  
675.000000	 0.119967  
672.500000	 0.153425  
670.000000	 0.251165  
667.500000	 0.181650  
665.000000	 0.156503  
662.500000	 0.117361  
660.000000	 0.069869  
657.500000	 0.058685  
655.000000	 0.011179  
652.500000	 0.027957  
650.000000	 0.064274  
647.500000	 0.008390  
645.000000	 0.002797  
642.500000	 -0.016785 
640.000000	 0.055912  
637.500000	 0.008396  
635.000000	 -0.027993 
632.500000	 0.025179  
630.000000	 0.000000  
627.500000	 0.030811  
625.000000	 -0.011202 
622.500000	 -0.028014 
620.000000	 0.042006  
617.500000	 -0.014006 
615.000000	 0.000000  
612.500000	 -0.022412 
610.000000	 -0.005603 
607.500000	 0.033637  
605.000000	 0.000000  
602.500000	 0.016835  
600.000000	 -0.005610 
597.500000	 -0.011219 
595.000000	 0.019636  
592.500000	 -0.014020 
590.000000	 0.028049  
587.500000	 0.025255  
585.000000	 0.000000  
582.500000	 0.044919  
580.000000	 0.050537  
577.500000	 0.053367  
575.000000	 0.011242  
572.500000	 0.002811  
570.000000	 0.103988  
567.500000	 0.098416  
565.000000	 0.045043  
562.500000	 0.039413  
560.000000	 0.025352  
557.500000	 0.045092  
555.000000	 0.073291  
552.500000	 0.126946  
550.000000	 0.152305  
547.500000	 0.172165  
545.000000	 0.191976  
542.500000	 0.246012  
540.000000	 0.350857  
537.500000	 0.421797  
535.000000	 0.509972  
532.500000	 0.736731  
530.000000	 0.919175  
527.500000	 1.242764  
525.000000	 1.661751  
522.500000	 2.131277  
520.000000	 2.648838  
517.500000	 3.190439  
515.000000	 3.881073  
512.500000	 4.596294  
510.000000	 5.357241  
507.500000	 6.235672  
505.000000	 7.244222  
502.500000	 8.545723  
500.000000	 9.950662  
497.500000	 11.563417 
495.000000	 13.453826 
492.500000	 15.439352 
490.000000	 17.417022 
487.500000	 19.284949 
485.000000	 21.240472 
482.500000	 23.492133 
480.000000	 26.140815 
477.500000	 29.450749 
475.000000	 33.813426 
472.500000	 39.487462 
470.000000	 46.643547 
467.500000	 54.872259 
465.000000	 63.420765 
462.500000	 71.471373 
460.000000	 77.671854 
457.500000	 81.556821 
455.000000	 83.529411 
452.500000	 84.281254 
450.000000	 84.550010 
447.500000	 84.628429 
445.000000	 84.701133 
442.500000	 84.820495 
440.000000	 84.757270 
437.500000	 84.451412 
435.000000	 83.610973 
432.500000	 82.156900 
430.000000	 79.762821 
427.500000	 76.064049 
425.000000	 70.773292 
422.500000	 63.854693 
420.000000	 55.928940 
417.500000	 47.092143 
415.000000	 38.040908 
412.500000	 29.798049 
410.000000	 22.528786 
407.500000	 16.097386 
405.000000	 10.773161 
402.500000	 6.855292  
400.000000	 4.095123  
397.500000	 2.391399  
395.000000	 1.410305  
392.500000	 0.863699  
390.000000	 0.608319  
387.500000	 0.427373  
385.000000	 0.290220  
382.500000	 0.191759  
380.000000	 0.208213  
377.500000	 0.248797  
375.000000	 0.172037  
372.500000	 0.104063  
370.000000	 0.049323  
367.500000	 0.002740  
365.000000	 0.021902  
362.500000	 0.057466  
360.000000	 0.016426  
357.500000	 -0.030113 
355.000000	 -0.002735 
352.500000	 0.038301  
350.000000	 0.005474  

