PE UV                   SPECTRUM    ASCII       PEDS        1.5         
  -1
OPALRETA.SP
96/08/07
13:33:05.00
96/08/07
13:33:05.00
FINN POULSEN
OPALGLAS I COLORANALYSATOR. RETTET TRANSMITTANS.
350.000000
1









4444

SCAN
1
1


0.0

2.00
MANUAL



UV/VIS




































#HDR
-1
-1
#GR
NM
%T
0.00002384185791015625
0.0
1100.000000
2.500000
301
8
85.215484
6.528533
#DATA
1100.000000	85.215484 
1097.500000	83.914792 
1095.000000	82.634186 
1092.500000	81.427640 
1090.000000	80.078283 
1087.500000	78.513356 
1085.000000	77.312989 
1082.500000	76.084863 
1080.000000	74.773668 
1077.500000	73.572076 
1075.000000	72.362919 
1072.500000	71.052191 
1070.000000	69.889148 
1067.500000	68.697041 
1065.000000	67.583067 
1062.500000	66.392759 
1060.000000	65.316335 
1057.500000	64.238566 
1055.000000	63.182077 
1052.500000	62.046595 
1050.000000	61.056385 
1047.500000	60.029625 
1045.000000	59.008899 
1042.500000	58.030867 
1040.000000	57.050541 
1037.500000	56.013422 
1035.000000	54.930676 
1032.500000	53.887959 
1030.000000	52.852329 
1027.500000	51.832545 
1025.000000	50.841380 
1022.500000	49.917926 
1020.000000	48.957108 
1017.500000	47.965469 
1015.000000	47.048099 
1012.500000	46.189757 
1010.000000	45.332816 
1007.500000	44.517716 
1005.000000	43.729148 
1002.500000	42.932925 
1000.000000	42.160290 
997.500000	 41.420078 
995.000000	 40.686755 
992.500000	 39.989053 
990.000000	 39.345011 
987.500000	 38.689174 
985.000000	 38.043081 
982.500000	 37.386408 
980.000000	 36.714127 
977.500000	 36.007908 
975.000000	 35.295237 
972.500000	 34.583429 
970.000000	 33.872231 
967.500000	 33.134726 
965.000000	 32.388544 
962.500000	 31.743406 
960.000000	 31.149080 
957.500000	 30.586552 
955.000000	 30.019033 
952.500000	 29.430576 
950.000000	 28.922157 
947.500000	 28.370912 
945.000000	 27.834744 
942.500000	 27.299438 
940.000000	 26.790909 
937.500000	 26.296102 
935.000000	 25.796766 
932.500000	 25.319319 
930.000000	 24.839552 
927.500000	 24.388110 
925.000000	 23.944030 
922.500000	 23.498394 
920.000000	 23.125294 
917.500000	 22.725924 
915.000000	 22.270543 
912.500000	 21.890182 
910.000000	 21.530404 
907.500000	 21.138435 
905.000000	 20.764751 
902.500000	 20.417203 
900.000000	 20.027388 
897.500000	 19.779275 
895.000000	 19.506289 
892.500000	 19.167997 
890.000000	 18.815814 
887.500000	 18.465246 
885.000000	 18.187559 
882.500000	 17.909588 
880.000000	 17.595080 
877.500000	 17.369563 
875.000000	 17.087357 
872.500000	 16.927795 
870.000000	 16.648680 
867.500000	 16.348956 
865.000000	 16.120334 
862.500000	 15.906778 
860.000000	 15.908100 
857.500000	 16.519261 
855.000000	 16.072193 
852.500000	 15.974995 
850.000000	 15.745160 
847.500000	 15.520034 
845.000000	 15.248275 
842.500000	 14.916705 
840.000000	 14.903108 
837.500000	 14.750811 
835.000000	 14.478674 
832.500000	 14.311851 
830.000000	 14.198863 
827.500000	 14.079120 
825.000000	 13.852575 
822.500000	 13.694146 
820.000000	 13.611388 
817.500000	 13.469784 
815.000000	 13.336181 
812.500000	 13.260845 
810.000000	 13.135496 
807.500000	 13.022920 
805.000000	 12.895374 
802.500000	 12.835900 
800.000000	 12.726695 
797.500000	 12.672314 
795.000000	 12.583501 
792.500000	 12.516143 
790.000000	 12.430559 
787.500000	 12.325740 
785.000000	 12.266849 
782.500000	 12.199912 
780.000000	 12.085855 
777.500000	 12.041029 
775.000000	 12.000809 
772.500000	 11.888436 
770.000000	 11.865845 
767.500000	 11.831129 
765.000000	 11.759188 
762.500000	 11.728808 
760.000000	 11.682553 
757.500000	 11.607213 
755.000000	 11.538432 
752.500000	 11.509982 
750.000000	 11.476451 
747.500000	 11.436647 
745.000000	 11.377113 
742.500000	 11.343724 
740.000000	 11.309693 
737.500000	 11.267325 
735.000000	 11.219097 
732.500000	 11.171589 
730.000000	 11.134148 
727.500000	 11.101720 
725.000000	 11.065563 
722.500000	 11.059660 
720.000000	 11.001455 
717.500000	 10.944859 
715.000000	 10.921535 
712.500000	 10.897748 
710.000000	 10.858091 
707.500000	 10.819030 
705.000000	 10.793947 
702.500000	 10.733281 
700.000000	 10.705528 
697.500000	 10.654431 
695.000000	 10.638860 
692.500000	 10.621263 
690.000000	 10.600268 
687.500000	 10.532442 
685.000000	 10.501735 
682.500000	 10.481804 
680.000000	 10.445324 
677.500000	 10.439242 
675.000000	 10.409481 
672.500000	 10.369895 
670.000000	 10.357669 
667.500000	 10.350530 
665.000000	 10.312088 
662.500000	 10.293895 
660.000000	 10.256522 
657.500000	 10.236417 
655.000000	 10.205949 
652.500000	 10.197931 
650.000000	 10.178303 
647.500000	 10.145705 
645.000000	 10.125566 
642.500000	 10.105967 
640.000000	 10.090503 
637.500000	 10.076285 
635.000000	 10.044242 
632.500000	 10.022521 
630.000000	 10.011308 
627.500000	 9.987659  
625.000000	 9.973286  
622.500000	 9.962421  
620.000000	 9.927569  
617.500000	 9.920800  
615.000000	 9.907733  
612.500000	 9.890479  
610.000000	 9.869418  
607.500000	 9.835210  
605.000000	 9.837827  
602.500000	 9.818416  
600.000000	 9.786139  
597.500000	 9.756073  
595.000000	 9.744582  
592.500000	 9.735446  
590.000000	 9.707444  
587.500000	 9.696069  
585.000000	 9.669512  
582.500000	 9.668023  
580.000000	 9.645570  
577.500000	 9.647676  
575.000000	 9.639636  
572.500000	 9.616482  
570.000000	 9.586526  
567.500000	 9.564524  
565.000000	 9.542491  
562.500000	 9.533560  
560.000000	 9.529149  
557.500000	 9.511754  
555.000000	 9.490325  
552.500000	 9.474049  
550.000000	 9.449949  
547.500000	 9.429581  
545.000000	 9.413873  
542.500000	 9.398824  
540.000000	 9.369055  
537.500000	 9.356065  
535.000000	 9.351980  
532.500000	 9.332085  
530.000000	 9.300793  
527.500000	 9.288902  
525.000000	 9.255171  
522.500000	 9.216991  
520.000000	 9.172345  
517.500000	 9.115512  
515.000000	 9.040178  
512.500000	 8.948319  
510.000000	 8.858572  
507.500000	 8.739094  
505.000000	 8.621717  
502.500000	 8.548441  
500.000000	 8.516074  
497.500000	 8.532073  
495.000000	 8.566799  
492.500000	 8.607410  
490.000000	 8.626437  
487.500000	 8.628997  
485.000000	 8.635483  
482.500000	 8.607993  
480.000000	 8.577000  
477.500000	 8.555428  
475.000000	 8.518669  
472.500000	 8.496274  
470.000000	 8.451562  
467.500000	 8.386043  
465.000000	 8.337498  
462.500000	 8.276326  
460.000000	 8.216504  
457.500000	 8.192878  
455.000000	 8.176857  
452.500000	 8.168192  
450.000000	 8.168092  
447.500000	 8.182332  
445.000000	 8.165400  
442.500000	 8.131639  
440.000000	 8.111830  
437.500000	 8.089157  
435.000000	 8.042643  
432.500000	 8.011907  
430.000000	 7.987008  
427.500000	 7.965234  
425.000000	 7.950704  
422.500000	 7.901186  
420.000000	 7.864665  
417.500000	 7.844446  
415.000000	 7.809772  
412.500000	 7.769477  
410.000000	 7.744731  
407.500000	 7.714717  
405.000000	 7.681947  
402.500000	 7.652911  
400.000000	 7.622147  
397.500000	 7.575176  
395.000000	 7.537388  
392.500000	 7.466711  
390.000000	 7.412259  
387.500000	 7.362198  
385.000000	 7.284067  
382.500000	 7.218895  
380.000000	 7.168408  
377.500000	 7.158202  
375.000000	 7.142676  
372.500000	 7.087949  
370.000000	 7.074294  
367.500000	 7.049844  
365.000000	 6.982894  
362.500000	 6.935322  
360.000000	 6.863604  
357.500000	 6.766917  
355.000000	 6.682178  
352.500000	 6.600503  
350.000000	 6.528533  

