PE UV                   SPECTRUM    ASCII       PEDS        1.5         
  -1
Y151524E.SP
96/07/30
15:24:06.00
96/07/30
15:24:06.00
FINN POULSEN
Y-FILTER NO.15150Y24. PRODUKTIONSUGE 19/96. MRK.E
350.000000
1









4444

SCAN
1
1


0.0

2.00
MANUAL



UV/VIS




































#HDR
-1
-1
#GR
NM
%T
0.00002384185791015625
0.0
1100.000000
2.500000
301
8
91.998163
-0.049773
#DATA
1100.000000	71.106774 
1097.500000	70.946147 
1095.000000	71.362283 
1092.500000	69.791945 
1090.000000	69.942417 
1087.500000	71.113052 
1085.000000	71.849620 
1082.500000	73.396427 
1080.000000	73.973535 
1077.500000	74.763406 
1075.000000	74.158716 
1072.500000	73.254483 
1070.000000	75.025541 
1067.500000	76.099235 
1065.000000	78.636650 
1062.500000	80.852877 
1060.000000	79.964961 
1057.500000	78.966103 
1055.000000	80.315279 
1052.500000	82.696697 
1050.000000	83.596197 
1047.500000	84.564489 
1045.000000	85.360154 
1042.500000	85.034510 
1040.000000	86.073596 
1037.500000	88.259417 
1035.000000	88.555155 
1032.500000	87.858617 
1030.000000	88.814237 
1027.500000	90.718684 
1025.000000	90.468775 
1022.500000	89.551308 
1020.000000	90.450470 
1017.500000	91.880388 
1015.000000	91.998163 
1012.500000	91.287226 
1010.000000	91.044939 
1007.500000	91.065264 
1005.000000	90.306244 
1002.500000	90.821673 
1000.000000	91.702156 
997.500000	 91.462058 
995.000000	 90.685163 
992.500000	 89.050067 
990.000000	 87.567828 
987.500000	 87.743407 
985.000000	 87.295473 
982.500000	 85.771647 
980.000000	 83.720867 
977.500000	 81.718775 
975.000000	 80.155432 
972.500000	 79.065117 
970.000000	 77.503927 
967.500000	 75.546477 
965.000000	 74.100953 
962.500000	 72.636842 
960.000000	 70.903542 
957.500000	 69.336762 
955.000000	 68.233641 
952.500000	 67.024482 
950.000000	 66.219969 
947.500000	 65.342502 
945.000000	 64.619395 
942.500000	 64.113620 
940.000000	 63.980374 
937.500000	 64.691705 
935.000000	 65.879991 
932.500000	 66.566215 
930.000000	 67.973360 
927.500000	 69.626710 
925.000000	 70.937145 
922.500000	 73.024980 
920.000000	 75.225603 
917.500000	 78.270907 
915.000000	 80.856525 
912.500000	 83.003224 
910.000000	 85.135649 
907.500000	 86.084668 
905.000000	 85.998917 
902.500000	 85.148785 
900.000000	 82.589176 
897.500000	 79.519419 
895.000000	 75.553743 
892.500000	 71.331902 
890.000000	 67.054074 
887.500000	 63.031453 
885.000000	 58.213750 
882.500000	 54.217519 
880.000000	 51.264673 
877.500000	 48.804047 
875.000000	 47.395157 
872.500000	 46.459985 
870.000000	 46.546991 
867.500000	 46.953713 
865.000000	 48.704033 
862.500000	 51.414322 
860.000000	 55.730926 
857.500000	 61.706715 
855.000000	 69.902585 
852.500000	 79.451325 
850.000000	 87.137858 
847.500000	 89.216070 
845.000000	 81.031395 
842.500000	 64.905046 
840.000000	 47.100086 
837.500000	 32.398788 
835.000000	 22.152697 
832.500000	 15.342026 
830.000000	 10.823727 
827.500000	 7.918456  
825.000000	 5.806542  
822.500000	 4.339999  
820.000000	 3.399369  
817.500000	 2.732594  
815.000000	 2.217594  
812.500000	 1.692385  
810.000000	 1.404130  
807.500000	 1.158702  
805.000000	 0.968359  
802.500000	 0.889414  
800.000000	 0.785207  
797.500000	 0.659489  
795.000000	 0.571380  
792.500000	 0.526315  
790.000000	 0.504324  
787.500000	 0.439647  
785.000000	 0.352440  
782.500000	 0.403021  
780.000000	 0.402850  
777.500000	 0.315679  
775.000000	 0.313055  
772.500000	 0.327055  
770.000000	 0.341171  
767.500000	 0.293519  
765.000000	 0.259527  
762.500000	 0.298928  
760.000000	 0.344389  
757.500000	 0.321797  
755.000000	 0.211690  
752.500000	 0.293462  
750.000000	 0.377943  
747.500000	 0.377986  
745.000000	 0.338916  
742.500000	 0.378777  
740.000000	 0.468675  
737.500000	 0.525423  
735.000000	 0.534064  
732.500000	 0.621732  
730.000000	 0.695268  
727.500000	 0.813559  
725.000000	 0.881331  
722.500000	 0.946568  
720.000000	 1.150172  
717.500000	 1.251766  
715.000000	 1.402992  
712.500000	 1.590041  
710.000000	 1.781271  
707.500000	 1.996380  
705.000000	 2.101422  
702.500000	 2.243091  
700.000000	 2.489192  
697.500000	 2.691013  
695.000000	 2.824587  
692.500000	 2.990099  
690.000000	 3.227814  
687.500000	 3.460080  
685.000000	 3.832003  
682.500000	 4.263269  
680.000000	 4.770938  
677.500000	 5.280453  
675.000000	 6.013482  
672.500000	 6.798618  
670.000000	 7.604939  
667.500000	 8.567869  
665.000000	 9.575853  
662.500000	 10.662816 
660.000000	 11.627379 
657.500000	 12.593558 
655.000000	 13.671653 
652.500000	 14.775269 
650.000000	 15.912441 
647.500000	 17.055253 
645.000000	 18.386273 
642.500000	 20.024935 
640.000000	 21.778810 
637.500000	 23.874205 
635.000000	 26.297872 
632.500000	 28.972678 
630.000000	 31.890221 
627.500000	 34.894859 
625.000000	 38.036670 
622.500000	 41.289608 
620.000000	 44.337349 
617.500000	 47.124220 
615.000000	 49.614359 
612.500000	 51.827487 
610.000000	 53.572441 
607.500000	 54.970063 
605.000000	 56.195204 
602.500000	 57.384816 
600.000000	 58.658948 
597.500000	 60.103921 
595.000000	 61.905302 
592.500000	 64.393703 
590.000000	 67.623020 
587.500000	 71.253761 
585.000000	 75.271901 
582.500000	 79.378779 
580.000000	 82.999091 
577.500000	 85.764234 
575.000000	 87.352239 
572.500000	 87.800858 
570.000000	 87.409324 
567.500000	 86.348375 
565.000000	 85.043136 
562.500000	 83.928469 
560.000000	 83.242642 
557.500000	 83.045002 
555.000000	 83.436055 
552.500000	 83.962802 
550.000000	 84.935613 
547.500000	 86.095798 
545.000000	 87.023336 
542.500000	 87.567536 
540.000000	 87.283600 
537.500000	 86.237008 
535.000000	 84.698936 
532.500000	 82.737839 
530.000000	 80.292766 
527.500000	 77.250817 
525.000000	 73.260713 
522.500000	 67.774752 
520.000000	 60.622176 
517.500000	 52.677757 
515.000000	 45.025228 
512.500000	 38.585580 
510.000000	 33.619847 
507.500000	 30.126204 
505.000000	 27.898709 
502.500000	 26.268332 
500.000000	 24.696246 
497.500000	 22.733209 
495.000000	 20.357084 
492.500000	 17.718867 
490.000000	 15.012180 
487.500000	 12.726263 
485.000000	 10.986534 
482.500000	 9.633219  
480.000000	 8.475332  
477.500000	 7.555121  
475.000000	 6.980768  
472.500000	 6.663321  
470.000000	 6.640711  
467.500000	 7.072947  
465.000000	 7.869513  
462.500000	 8.426440  
460.000000	 7.909170  
457.500000	 6.259922  
455.000000	 4.497180  
452.500000	 3.303245  
450.000000	 2.561983  
447.500000	 2.057977  
445.000000	 1.847536  
442.500000	 1.794145  
440.000000	 1.650550  
437.500000	 1.492786  
435.000000	 1.395568  
432.500000	 1.300939  
430.000000	 1.119382  
427.500000	 0.913533  
425.000000	 0.738130  
422.500000	 0.632823  
420.000000	 0.505064  
417.500000	 0.319036  
415.000000	 0.219079  
412.500000	 0.213432  
410.000000	 0.163725  
407.500000	 0.077704  
405.000000	 0.102538  
402.500000	 0.191141  
400.000000	 0.335068  
397.500000	 0.476269  
395.000000	 0.506378  
392.500000	 0.342920  
390.000000	 0.149290  
387.500000	 0.013833  
385.000000	 -0.049773 
382.500000	 -0.005526 
380.000000	 0.033147  
377.500000	 -0.019322 
375.000000	 0.035870  
372.500000	 0.080148  
370.000000	 0.016575  
367.500000	 0.030404  
365.000000	 0.019351  
362.500000	 -0.019378 
360.000000	 -0.008296 
357.500000	 -0.005526 
355.000000	 0.033140  
352.500000	 0.008284  
350.000000	 -0.046965 

