PE UV                   SPECTRUM    ASCII       PEDS        1.5         
  -1
Z151624E.SP
96/07/31
13:43:34.00
96/07/31
13:43:34.00
FINN POULSEN
Z-FILTER NO.15160Y24. PRODUKTIONSUGE 26/96. MRK.E
350.000000
1









4444

SCAN
1
1


0.0

2.00
MANUAL



UV/VIS




































#HDR
-1
-1
#GR
NM
%T
0.00002384185791015625
0.0
1100.000000
2.500000
301
8
85.191599
-0.021900
#DATA
1100.000000	48.027568 
1097.500000	46.538183 
1095.000000	45.396833 
1092.500000	44.268976 
1090.000000	43.238319 
1087.500000	40.936081 
1085.000000	41.450638 
1082.500000	41.972931 
1080.000000	40.133180 
1077.500000	37.469261 
1075.000000	34.975145 
1072.500000	34.725744 
1070.000000	35.544655 
1067.500000	34.993299 
1065.000000	34.259632 
1062.500000	33.217779 
1060.000000	32.541192 
1057.500000	31.589261 
1055.000000	30.497925 
1052.500000	29.146450 
1050.000000	29.758227 
1047.500000	29.988907 
1045.000000	28.382944 
1042.500000	27.607328 
1040.000000	27.154082 
1037.500000	26.734507 
1035.000000	26.356277 
1032.500000	25.147722 
1030.000000	24.129098 
1027.500000	25.560670 
1025.000000	25.935195 
1022.500000	23.986550 
1020.000000	23.504905 
1017.500000	24.517219 
1015.000000	25.610342 
1012.500000	25.452558 
1010.000000	23.225081 
1007.500000	23.355614 
1005.000000	25.502248 
1002.500000	25.345070 
1000.000000	24.060411 
997.500000	 23.933204 
995.000000	 24.578306 
992.500000	 24.849598 
990.000000	 24.413679 
987.500000	 24.483217 
985.000000	 25.066594 
982.500000	 25.735333 
980.000000	 26.247630 
977.500000	 26.575749 
975.000000	 26.239231 
972.500000	 26.461366 
970.000000	 27.123913 
967.500000	 28.111028 
965.000000	 28.615784 
962.500000	 29.124973 
960.000000	 29.458607 
957.500000	 29.481050 
955.000000	 29.918469 
952.500000	 30.251630 
950.000000	 30.470700 
947.500000	 31.374382 
945.000000	 31.290339 
942.500000	 31.696595 
940.000000	 31.263183 
937.500000	 32.291051 
935.000000	 32.586169 
932.500000	 32.757421 
930.000000	 32.619906 
927.500000	 32.763509 
925.000000	 32.730575 
922.500000	 33.143146 
920.000000	 33.023529 
917.500000	 32.579587 
915.000000	 32.328524 
912.500000	 32.022773 
910.000000	 31.188931 
907.500000	 30.681848 
905.000000	 29.874112 
902.500000	 28.957897 
900.000000	 29.075138 
897.500000	 28.559540 
895.000000	 27.599613 
892.500000	 27.062209 
890.000000	 26.344578 
887.500000	 25.311314 
885.000000	 24.525316 
882.500000	 23.686320 
880.000000	 23.490040 
877.500000	 22.486283 
875.000000	 21.222992 
872.500000	 20.005358 
870.000000	 18.836320 
867.500000	 17.680014 
865.000000	 16.438466 
862.500000	 15.207373 
860.000000	 13.727696 
857.500000	 12.073824 
855.000000	 11.131422 
852.500000	 10.196263 
850.000000	 9.168887  
847.500000	 8.448438  
845.000000	 7.522050  
842.500000	 6.693875  
840.000000	 5.977324  
837.500000	 5.352973  
835.000000	 4.803651  
832.500000	 4.311880  
830.000000	 3.797856  
827.500000	 3.450484  
825.000000	 3.168327  
822.500000	 2.855708  
820.000000	 2.553950  
817.500000	 2.325062  
815.000000	 2.138515  
812.500000	 1.880003  
810.000000	 1.685471  
807.500000	 1.600868  
805.000000	 1.457920  
802.500000	 1.282659  
800.000000	 1.259123  
797.500000	 1.103801  
795.000000	 0.984988  
792.500000	 0.906175  
790.000000	 0.811602  
787.500000	 0.833519  
785.000000	 0.714225  
782.500000	 0.685141  
780.000000	 0.657693  
777.500000	 0.618573  
775.000000	 0.546067  
772.500000	 0.487641  
770.000000	 0.512934  
767.500000	 0.513006  
765.000000	 0.413084  
762.500000	 0.398873  
760.000000	 0.345683  
757.500000	 0.373998  
755.000000	 0.418678  
752.500000	 0.295783  
750.000000	 0.287348  
747.500000	 0.326323  
745.000000	 0.273544  
742.500000	 0.240055  
740.000000	 0.245631  
737.500000	 0.292936  
735.000000	 0.259566  
732.500000	 0.223307  
730.000000	 0.253913  
727.500000	 0.220454  
725.000000	 0.253807  
722.500000	 0.161821  
720.000000	 0.181285  
717.500000	 0.214783  
715.000000	 0.128376  
712.500000	 0.086464  
710.000000	 0.114333  
707.500000	 0.161920  
705.000000	 0.153571  
702.500000	 0.094964  
700.000000	 0.108829  
697.500000	 0.134010  
695.000000	 0.086601  
692.500000	 0.133891  
690.000000	 0.036249  
687.500000	 0.086437  
685.000000	 0.103236  
682.500000	 0.170115  
680.000000	 0.150741  
677.500000	 0.195258  
675.000000	 0.133917  
672.500000	 0.184110  
670.000000	 0.251165  
667.500000	 0.170472  
665.000000	 0.226370  
662.500000	 0.251487  
660.000000	 0.212403  
657.500000	 0.184439  
655.000000	 0.075463  
652.500000	 0.086669  
650.000000	 0.095014  
647.500000	 0.041954  
645.000000	 0.039168  
642.500000	 0.053152  
640.000000	 0.075482  
637.500000	 0.016793  
635.000000	 -0.019595 
632.500000	 0.061548  
630.000000	 0.047579  
627.500000	 0.028010  
625.000000	 -0.005601 
622.500000	 0.000000  
620.000000	 0.050407  
617.500000	 0.019608  
615.000000	 -0.008401 
612.500000	 0.000000  
610.000000	 0.033622  
607.500000	 0.039243  
605.000000	 0.000000  
602.500000	 0.005611  
600.000000	 0.047685  
597.500000	 0.011219  
595.000000	 -0.008415 
592.500000	 -0.016825 
590.000000	 0.016829  
587.500000	 0.033673  
585.000000	 0.008421  
582.500000	 0.016844  
580.000000	 0.033691  
577.500000	 0.042132  
575.000000	 0.022485  
572.500000	 0.022488  
570.000000	 0.081504  
567.500000	 0.087169  
565.000000	 0.042228  
562.500000	 0.033782  
560.000000	 0.022535  
557.500000	 0.033819  
555.000000	 0.078928  
552.500000	 0.118483  
550.000000	 0.138203  
547.500000	 0.146764  
545.000000	 0.141159  
542.500000	 0.217735  
540.000000	 0.271631  
537.500000	 0.314225  
535.000000	 0.402311  
532.500000	 0.572383  
530.000000	 0.686544  
527.500000	 0.907955  
525.000000	 1.253402  
522.500000	 1.697653  
520.000000	 2.151297  
517.500000	 2.677489  
515.000000	 3.351454  
512.500000	 4.089922  
510.000000	 4.863448  
507.500000	 5.673507  
505.000000	 6.590079  
502.500000	 7.721230  
500.000000	 8.918324  
497.500000	 10.333037 
495.000000	 11.947214 
492.500000	 13.697210 
490.000000	 15.554825 
487.500000	 17.299612 
485.000000	 19.058363 
482.500000	 20.855261 
480.000000	 22.957015 
477.500000	 25.612349 
475.000000	 28.921446 
472.500000	 33.444475 
470.000000	 39.374673 
467.500000	 46.735819 
465.000000	 55.224043 
462.500000	 63.986490 
460.000000	 71.927537 
457.500000	 77.898020 
455.000000	 81.450257 
452.500000	 83.352789 
450.000000	 84.204074 
447.500000	 84.579196 
445.000000	 84.912550 
442.500000	 85.164110 
440.000000	 85.191599 
437.500000	 84.885991 
435.000000	 84.133267 
432.500000	 82.896582 
430.000000	 81.036759 
427.500000	 78.350345 
425.000000	 74.535254 
422.500000	 69.493295 
420.000000	 62.996370 
417.500000	 55.044408 
415.000000	 46.456259 
412.500000	 37.565599 
410.000000	 29.234109 
407.500000	 21.802093 
405.000000	 15.339597 
402.500000	 10.046927 
400.000000	 6.138570  
397.500000	 3.540478  
395.000000	 2.038632  
392.500000	 1.192728  
390.000000	 0.764509  
387.500000	 0.495863  
385.000000	 0.320337  
382.500000	 0.232851  
380.000000	 0.216432  
377.500000	 0.199584  
375.000000	 0.166575  
372.500000	 0.131449  
370.000000	 0.057543  
367.500000	 0.010960  
365.000000	 0.032853  
362.500000	 0.032838  
360.000000	 0.013688  
357.500000	 -0.021900 
355.000000	 0.024617  
352.500000	 0.079339  
350.000000	 0.027370  

