PE UV       SUBTECH     SPECTRUM    ASCII       PEDS        1.5         
  -1
OPALRETH.SP
96/08/07
14:16:39.00
96/08/07
14:41:14.00
FINN POULSEN
OPALGLAS COLORANALYSATOR. RETTET TRANSMITTANS. H
350.000000
1









4444

SCAN
1
1


0.0

2.00
MANUAL



UV/VIS




































#HDR
-1
-1
#GR
NM
%T
0.00002384185791015625
0.0
1100.000000
2.500000
301
8
45.462276
6.081668
#DATA
1100.000000	45.462276 
1097.500000	44.653124 
1095.000000	43.815666 
1092.500000	43.020094 
1090.000000	42.228927 
1087.500000	41.357938 
1085.000000	40.611699 
1082.500000	39.861637 
1080.000000	39.069787 
1077.500000	38.374086 
1075.000000	37.670070 
1072.500000	36.914661 
1070.000000	36.229368 
1067.500000	35.526705 
1065.000000	34.881160 
1062.500000	34.208354 
1060.000000	33.595713 
1057.500000	32.985424 
1055.000000	32.338622 
1052.500000	31.706671 
1050.000000	31.138550 
1047.500000	30.565404 
1045.000000	30.005816 
1042.500000	29.458781 
1040.000000	28.943906 
1037.500000	28.436661 
1035.000000	27.928210 
1032.500000	27.463280 
1030.000000	27.006307 
1027.500000	26.524113 
1025.000000	26.053905 
1022.500000	25.616015 
1020.000000	25.157054 
1017.500000	24.689707 
1015.000000	24.261489 
1012.500000	23.861362 
1010.000000	23.469801 
1007.500000	23.093726 
1005.000000	22.735191 
1002.500000	22.375481 
1000.000000	22.027767 
997.500000	 21.696785 
995.000000	 21.380108 
992.500000	 21.084669 
990.000000	 20.785323 
987.500000	 20.485974 
985.000000	 20.224089 
982.500000	 19.942878 
980.000000	 19.651368 
977.500000	 19.343093 
975.000000	 19.034842 
972.500000	 18.737661 
970.000000	 18.439815 
967.500000	 18.132681 
965.000000	 17.819318 
962.500000	 17.553219 
960.000000	 17.309646 
957.500000	 17.070046 
955.000000	 16.847716 
952.500000	 16.602440 
950.000000	 16.376735 
947.500000	 16.163792 
945.000000	 15.947587 
942.500000	 15.754141 
940.000000	 15.562372 
937.500000	 15.367568 
935.000000	 15.183510 
932.500000	 14.987032 
930.000000	 14.807956 
927.500000	 14.639554 
925.000000	 14.479835 
922.500000	 14.319720 
920.000000	 14.141251 
917.500000	 14.026984 
915.000000	 13.852384 
912.500000	 13.707702 
910.000000	 13.616330 
907.500000	 13.474544 
905.000000	 13.349182 
902.500000	 13.248304 
900.000000	 13.123871 
897.500000	 13.056603 
895.000000	 12.901658 
892.500000	 12.801174 
890.000000	 12.626966 
887.500000	 12.550000 
885.000000	 12.511342 
882.500000	 12.355323 
880.000000	 12.303658 
877.500000	 12.224415 
875.000000	 12.122914 
872.500000	 12.057433 
870.000000	 11.954202 
867.500000	 11.851714 
865.000000	 11.793149 
862.500000	 11.740535 
860.000000	 11.963753 
857.500000	 12.820323 
855.000000	 12.449257 
852.500000	 12.526652 
850.000000	 12.464163 
847.500000	 12.335757 
845.000000	 12.204785 
842.500000	 12.088165 
840.000000	 11.975348 
837.500000	 11.957028 
835.000000	 11.870430 
832.500000	 11.756506 
830.000000	 11.704648 
827.500000	 11.654371 
825.000000	 11.614479 
822.500000	 11.557843 
820.000000	 11.516422 
817.500000	 11.485269 
815.000000	 11.413538 
812.500000	 11.401473 
810.000000	 11.353699 
807.500000	 11.319330 
805.000000	 11.268637 
802.500000	 11.208464 
800.000000	 11.166125 
797.500000	 11.134355 
795.000000	 11.142356 
792.500000	 11.133074 
790.000000	 11.084558 
787.500000	 11.062533 
785.000000	 11.039788 
782.500000	 10.980741 
780.000000	 10.938398 
777.500000	 10.935450 
775.000000	 10.929647 
772.500000	 10.907923 
770.000000	 10.849565 
767.500000	 10.846891 
765.000000	 10.819820 
762.500000	 10.833266 
760.000000	 10.795940 
757.500000	 10.752681 
755.000000	 10.746267 
752.500000	 10.718429 
750.000000	 10.711584 
747.500000	 10.689675 
745.000000	 10.646642 
742.500000	 10.609858 
740.000000	 10.635956 
737.500000	 10.608077 
735.000000	 10.570756 
732.500000	 10.555002 
730.000000	 10.532251 
727.500000	 10.508454 
725.000000	 10.497424 
722.500000	 10.479113 
720.000000	 10.445895 
717.500000	 10.422688 
715.000000	 10.395330 
712.500000	 10.383934 
710.000000	 10.354996 
707.500000	 10.328229 
705.000000	 10.309141 
702.500000	 10.272283 
700.000000	 10.250985 
697.500000	 10.220517 
695.000000	 10.188555 
692.500000	 10.160485 
690.000000	 10.149634 
687.500000	 10.112136 
685.000000	 10.092496 
682.500000	 10.065607 
680.000000	 10.047616 
677.500000	 10.029446 
675.000000	 10.007382 
672.500000	 9.975016  
670.000000	 9.947126  
667.500000	 9.946533  
665.000000	 9.935568  
662.500000	 9.903813  
660.000000	 9.893710  
657.500000	 9.867924  
655.000000	 9.838820  
652.500000	 9.830728  
650.000000	 9.808638  
647.500000	 9.782094  
645.000000	 9.768300  
642.500000	 9.748176  
640.000000	 9.726732  
637.500000	 9.720732  
635.000000	 9.679009  
632.500000	 9.671687  
630.000000	 9.667001  
627.500000	 9.652143  
625.000000	 9.639777  
622.500000	 9.610912  
620.000000	 9.589017  
617.500000	 9.585490  
615.000000	 9.569668  
612.500000	 9.543196  
610.000000	 9.533099  
607.500000	 9.501744  
605.000000	 9.480373  
602.500000	 9.467556  
600.000000	 9.449121  
597.500000	 9.431312  
595.000000	 9.403143  
592.500000	 9.371490  
590.000000	 9.380996  
587.500000	 9.360015  
585.000000	 9.334538  
582.500000	 9.323883  
580.000000	 9.320427  
577.500000	 9.301154  
575.000000	 9.281056  
572.500000	 9.264608  
570.000000	 9.239512  
567.500000	 9.231649  
565.000000	 9.222085  
562.500000	 9.184638  
560.000000	 9.169321  
557.500000	 9.162311  
555.000000	 9.128009  
552.500000	 9.106191  
550.000000	 9.088787  
547.500000	 9.067901  
545.000000	 9.051380  
542.500000	 9.042173  
540.000000	 9.029026  
537.500000	 9.004956  
535.000000	 8.986502  
532.500000	 8.967745  
530.000000	 8.941667  
527.500000	 8.913335  
525.000000	 8.881978  
522.500000	 8.853645  
520.000000	 8.812009  
517.500000	 8.758851  
515.000000	 8.680019  
512.500000	 8.585939  
510.000000	 8.489300  
507.500000	 8.374825  
505.000000	 8.272894  
502.500000	 8.197870  
500.000000	 8.165438  
497.500000	 8.169988  
495.000000	 8.205874  
492.500000	 8.237608  
490.000000	 8.263066  
487.500000	 8.253166  
485.000000	 8.252326  
482.500000	 8.231109  
480.000000	 8.200678  
477.500000	 8.176454  
475.000000	 8.150425  
472.500000	 8.109366  
470.000000	 8.049479  
467.500000	 8.003522  
465.000000	 7.939683  
462.500000	 7.882834  
460.000000	 7.832910  
457.500000	 7.802916  
455.000000	 7.788480  
452.500000	 7.778380  
450.000000	 7.774518  
447.500000	 7.766447  
445.000000	 7.761535  
442.500000	 7.732841  
440.000000	 7.700109  
437.500000	 7.672200  
435.000000	 7.624038  
432.500000	 7.597331  
430.000000	 7.583759  
427.500000	 7.550831  
425.000000	 7.510707  
422.500000	 7.473563  
420.000000	 7.457842  
417.500000	 7.428472  
415.000000	 7.392479  
412.500000	 7.359628  
410.000000	 7.327645  
407.500000	 7.282405  
405.000000	 7.252343  
402.500000	 7.215139  
400.000000	 7.167949  
397.500000	 7.137404  
395.000000	 7.090696  
392.500000	 7.024574  
390.000000	 6.964996  
387.500000	 6.917602  
385.000000	 6.842631  
382.500000	 6.786360  
380.000000	 6.721946  
377.500000	 6.679982  
375.000000	 6.670273  
372.500000	 6.642891  
370.000000	 6.606819  
367.500000	 6.571406  
365.000000	 6.546507  
362.500000	 6.489902  
360.000000	 6.433953  
357.500000	 6.367613  
355.000000	 6.246878  
352.500000	 6.158236  
350.000000	 6.081668  

