PE UV                   SPECTRUM    ASCII       PEDS        1.5         
  -1
OPALRETC.SP
96/08/07
13:46:53.00
96/08/07
13:46:53.00
FINN POULSEN
OPALGLAS COLORANALYSATOR. RETTET TRANSMITTANS. C
350.000000
1









4444

SCAN
1
1


0.0

2.00
MANUAL



UV/VIS




































#HDR
-1
-1
#GR
NM
%T
0.00002384185791015625
0.0
1100.000000
2.500000
301
8
155.947922
7.204536
#DATA
1100.000000	155.947922 
1097.500000	153.990948 
1095.000000	151.828911 
1092.500000	149.982103 
1090.000000	147.693211 
1087.500000	144.990415 
1085.000000	143.084623 
1082.500000	140.947483 
1080.000000	138.609785 
1077.500000	136.568534 
1075.000000	134.430793 
1072.500000	132.128915 
1070.000000	129.999500 
1067.500000	127.859735 
1065.000000	125.865449 
1062.500000	123.779166 
1060.000000	121.951189 
1057.500000	120.014016 
1055.000000	117.981805 
1052.500000	116.294765 
1050.000000	114.563714 
1047.500000	112.642562 
1045.000000	110.764001 
1042.500000	109.034653 
1040.000000	107.273234 
1037.500000	105.600305 
1035.000000	103.982382 
1032.500000	102.415590 
1030.000000	100.811100 
1027.500000	99.176934  
1025.000000	97.596134  
1022.500000	96.108697  
1020.000000	94.638839  
1017.500000	93.187108  
1015.000000	91.804841  
1012.500000	90.439219  
1010.000000	89.042846  
1007.500000	87.738817  
1005.000000	86.520131  
1002.500000	85.251583  
1000.000000	83.965150  
997.500000	 82.716275  
995.000000	 81.527352  
992.500000	 80.423466  
990.000000	 79.283792  
987.500000	 78.043716  
985.000000	 76.693852  
982.500000	 75.280051  
980.000000	 73.878946  
977.500000	 72.404767  
975.000000	 70.960503  
972.500000	 69.532863  
970.000000	 68.107351  
967.500000	 66.646565  
965.000000	 65.180557  
962.500000	 63.884003  
960.000000	 62.673911  
957.500000	 61.498231  
955.000000	 60.320481  
952.500000	 59.123075  
950.000000	 58.075532  
947.500000	 56.866143  
945.000000	 55.774063  
942.500000	 54.665393  
940.000000	 53.556580  
937.500000	 52.474988  
935.000000	 51.429083  
932.500000	 50.391317  
930.000000	 49.336963  
927.500000	 48.358540  
925.000000	 47.375147  
922.500000	 46.387404  
920.000000	 45.574243  
917.500000	 44.681132  
915.000000	 43.661116  
912.500000	 42.776568  
910.000000	 41.891484  
907.500000	 41.011364  
905.000000	 40.152288  
902.500000	 39.330682  
900.000000	 38.502368  
897.500000	 37.803770  
895.000000	 37.050168  
892.500000	 36.284479  
890.000000	 35.449240  
887.500000	 34.690098  
885.000000	 33.984466  
882.500000	 33.275415  
880.000000	 32.586604  
877.500000	 31.891434  
875.000000	 31.229394  
872.500000	 30.582650  
870.000000	 29.885673  
867.500000	 29.281768  
865.000000	 28.685501  
862.500000	 28.043099  
860.000000	 27.555977  
857.500000	 27.183651  
855.000000	 26.401991  
852.500000	 25.857827  
850.000000	 25.349568  
847.500000	 24.775361  
845.000000	 24.378390  
842.500000	 23.742004  
840.000000	 23.412466  
837.500000	 23.004079  
835.000000	 22.455769  
832.500000	 22.015629  
830.000000	 21.540517  
827.500000	 21.245785  
825.000000	 20.929554  
822.500000	 20.528759  
820.000000	 20.222547  
817.500000	 19.798492  
815.000000	 19.463497  
812.500000	 19.236281  
810.000000	 18.847789  
807.500000	 18.568672  
805.000000	 18.228055  
802.500000	 17.938848  
800.000000	 17.659444  
797.500000	 17.468640  
795.000000	 17.238755  
792.500000	 16.984382  
790.000000	 16.743286  
787.500000	 16.517650  
785.000000	 16.308197  
782.500000	 16.075878  
780.000000	 15.821482  
777.500000	 15.657451  
775.000000	 15.474776  
772.500000	 15.312414  
770.000000	 15.100684  
767.500000	 14.926773  
765.000000	 14.725181  
762.500000	 14.595177  
760.000000	 14.445933  
757.500000	 14.300558  
755.000000	 14.111160  
752.500000	 14.005965  
750.000000	 13.893250  
747.500000	 13.737722  
745.000000	 13.594650  
742.500000	 13.476404  
740.000000	 13.377080  
737.500000	 13.259594  
735.000000	 13.151815  
732.500000	 13.054608  
730.000000	 12.950683  
727.500000	 12.853029  
725.000000	 12.755817  
722.500000	 12.698712  
720.000000	 12.597728  
717.500000	 12.486574  
715.000000	 12.373845  
712.500000	 12.325109  
710.000000	 12.222629  
707.500000	 12.134116  
705.000000	 12.078566  
702.500000	 12.022266  
700.000000	 11.951459  
697.500000	 11.904622  
695.000000	 11.819581  
692.500000	 11.747932  
690.000000	 11.709311  
687.500000	 11.637980  
685.000000	 11.580309  
682.500000	 11.506459  
680.000000	 11.469201  
677.500000	 11.437023  
675.000000	 11.383411  
672.500000	 11.315681  
670.000000	 11.281420  
667.500000	 11.260530  
665.000000	 11.195633  
662.500000	 11.167230  
660.000000	 11.123482  
657.500000	 11.094154  
655.000000	 11.045571  
652.500000	 11.016759  
650.000000	 10.985498  
647.500000	 10.946456  
645.000000	 10.921927  
642.500000	 10.891845  
640.000000	 10.844238  
637.500000	 10.842480  
635.000000	 10.796127  
632.500000	 10.768412  
630.000000	 10.735196  
627.500000	 10.733159  
625.000000	 10.711852  
622.500000	 10.681614  
620.000000	 10.652818  
617.500000	 10.646992  
615.000000	 10.615900  
612.500000	 10.590232  
610.000000	 10.575722  
607.500000	 10.538875  
605.000000	 10.525392  
602.500000	 10.498662  
600.000000	 10.486878  
597.500000	 10.451228  
595.000000	 10.435046  
592.500000	 10.413487  
590.000000	 10.396263  
587.500000	 10.384526  
585.000000	 10.354256  
582.500000	 10.347138  
580.000000	 10.335015  
577.500000	 10.314891  
575.000000	 10.290951  
572.500000	 10.291005  
570.000000	 10.258684  
567.500000	 10.227165  
565.000000	 10.222016  
562.500000	 10.220125  
560.000000	 10.191871  
557.500000	 10.184770  
555.000000	 10.157220  
552.500000	 10.141924  
550.000000	 10.122325  
547.500000	 10.093087  
545.000000	 10.064619  
542.500000	 10.069669  
540.000000	 10.055344  
537.500000	 10.037804  
535.000000	 10.037244  
532.500000	 10.021036  
530.000000	 9.991931   
527.500000	 9.960828   
525.000000	 9.923524   
522.500000	 9.884817   
520.000000	 9.852391   
517.500000	 9.796460   
515.000000	 9.723422   
512.500000	 9.621333   
510.000000	 9.501892   
507.500000	 9.381765   
505.000000	 9.278221   
502.500000	 9.198261   
500.000000	 9.165800   
497.500000	 9.170433   
495.000000	 9.217629   
492.500000	 9.266260   
490.000000	 9.289023   
487.500000	 9.290127   
485.000000	 9.287592   
482.500000	 9.279477   
480.000000	 9.257492   
477.500000	 9.232580   
475.000000	 9.199455   
472.500000	 9.168137   
470.000000	 9.114262   
467.500000	 9.056431   
465.000000	 9.005255   
462.500000	 8.952058   
460.000000	 8.902875   
457.500000	 8.870681   
455.000000	 8.855468   
452.500000	 8.848720   
450.000000	 8.863468   
447.500000	 8.883229   
445.000000	 8.863319   
442.500000	 8.831124   
440.000000	 8.807936   
437.500000	 8.786367   
435.000000	 8.746166   
432.500000	 8.717356   
430.000000	 8.689485   
427.500000	 8.664826   
425.000000	 8.645808   
422.500000	 8.602691   
420.000000	 8.587187   
417.500000	 8.550823   
415.000000	 8.512887   
412.500000	 8.491070   
410.000000	 8.457098   
407.500000	 8.422148   
405.000000	 8.379567   
402.500000	 8.344228   
400.000000	 8.317833   
397.500000	 8.276588   
395.000000	 8.242513   
392.500000	 8.186621   
390.000000	 8.125377   
387.500000	 8.072291   
385.000000	 8.005857   
382.500000	 7.942617   
380.000000	 7.897846   
377.500000	 7.865349   
375.000000	 7.812196   
372.500000	 7.785038   
370.000000	 7.784994   
367.500000	 7.737702   
365.000000	 7.685623   
362.500000	 7.625704   
360.000000	 7.538258   
357.500000	 7.481163   
355.000000	 7.385883   
352.500000	 7.288256   
350.000000	 7.204536   

