PE UV                   SPECTRUM    ASCII       PEDS        1.5         
  -1
OPALRETD.SP
96/08/07
13:52:18.00
96/08/07
13:52:18.00
FINN POULSEN
OPALGLAS COLORANALYSATOR. RETTET TRANSMITTANS. D
350.000000
1









4444

SCAN
1
1


0.0

2.00
MANUAL



UV/VIS




































#HDR
-1
-1
#GR
NM
%T
0.00002384185791015625
0.0
1100.000000
2.500000
301
8
42.996922
5.913838
#DATA
1100.000000	42.996922 
1097.500000	42.225485 
1095.000000	41.422033 
1092.500000	40.672616 
1090.000000	39.926003 
1087.500000	39.107764 
1085.000000	38.399928 
1082.500000	37.691517 
1080.000000	36.955377 
1077.500000	36.286410 
1075.000000	35.614364 
1072.500000	34.898670 
1070.000000	34.254544 
1067.500000	33.595916 
1065.000000	32.987200 
1062.500000	32.351231 
1060.000000	31.770336 
1057.500000	31.184393 
1055.000000	30.568090 
1052.500000	29.978953 
1050.000000	29.443545 
1047.500000	28.902423 
1045.000000	28.378986 
1042.500000	27.878631 
1040.000000	27.404550 
1037.500000	26.922013 
1035.000000	26.465510 
1032.500000	26.015144 
1030.000000	25.566040 
1027.500000	25.107859 
1025.000000	24.662018 
1022.500000	24.247844 
1020.000000	23.820336 
1017.500000	23.389226 
1015.000000	22.986396 
1012.500000	22.620367 
1010.000000	22.252690 
1007.500000	21.901216 
1005.000000	21.572054 
1002.500000	21.233937 
1000.000000	20.903238 
997.500000	 20.593196 
995.000000	 20.288025 
992.500000	 20.006478 
990.000000	 19.767517 
987.500000	 19.515887 
985.000000	 19.245966 
982.500000	 18.972016 
980.000000	 18.699287 
977.500000	 18.412919 
975.000000	 18.129850 
972.500000	 17.848808 
970.000000	 17.574602 
967.500000	 17.282144 
965.000000	 16.988403 
962.500000	 16.746075 
960.000000	 16.519831 
957.500000	 16.306593 
955.000000	 16.082820 
952.500000	 15.853784 
950.000000	 15.663289 
947.500000	 15.455778 
945.000000	 15.262001 
942.500000	 15.072089 
940.000000	 14.882572 
937.500000	 14.711780 
935.000000	 14.550945 
932.500000	 14.369179 
930.000000	 14.216098 
927.500000	 14.067324 
925.000000	 13.909420 
922.500000	 13.756264 
920.000000	 13.616655 
917.500000	 13.499722 
915.000000	 13.323807 
912.500000	 13.186259 
910.000000	 13.093656 
907.500000	 12.986709 
905.000000	 12.880877 
902.500000	 12.774778 
900.000000	 12.666587 
897.500000	 12.606521 
895.000000	 12.425553 
892.500000	 12.337948 
890.000000	 12.218057 
887.500000	 12.165168 
885.000000	 12.087837 
882.500000	 11.980072 
880.000000	 11.938701 
877.500000	 11.880764 
875.000000	 11.759116 
872.500000	 11.687973 
870.000000	 11.560120 
867.500000	 11.478405 
865.000000	 11.442619 
862.500000	 11.348785 
860.000000	 11.631978 
857.500000	 12.486133 
855.000000	 12.278259 
852.500000	 12.190484 
850.000000	 12.130018 
847.500000	 12.019291 
845.000000	 11.877911 
842.500000	 11.725265 
840.000000	 11.746255 
837.500000	 11.707599 
835.000000	 11.549600 
832.500000	 11.491705 
830.000000	 11.443805 
827.500000	 11.445082 
825.000000	 11.370814 
822.500000	 11.325144 
820.000000	 11.258694 
817.500000	 11.188927 
815.000000	 11.174863 
812.500000	 11.154448 
810.000000	 11.090409 
807.500000	 11.046353 
805.000000	 11.013618 
802.500000	 10.981623 
800.000000	 10.915888 
797.500000	 10.961952 
795.000000	 10.939740 
792.500000	 10.898658 
790.000000	 10.883743 
787.500000	 10.796739 
785.000000	 10.809700 
782.500000	 10.769354 
780.000000	 10.751121 
777.500000	 10.747223 
775.000000	 10.699447 
772.500000	 10.689057 
770.000000	 10.647680 
767.500000	 10.631734 
765.000000	 10.592434 
762.500000	 10.599750 
760.000000	 10.594335 
757.500000	 10.566192 
755.000000	 10.515600 
752.500000	 10.493143 
750.000000	 10.486102 
747.500000	 10.456802 
745.000000	 10.447629 
742.500000	 10.422287 
740.000000	 10.421518 
737.500000	 10.382606 
735.000000	 10.396604 
732.500000	 10.369906 
730.000000	 10.341458 
727.500000	 10.332668 
725.000000	 10.286868 
722.500000	 10.261318 
720.000000	 10.240854 
717.500000	 10.208180 
715.000000	 10.189652 
712.500000	 10.177981 
710.000000	 10.137179 
707.500000	 10.103517 
705.000000	 10.108848 
702.500000	 10.060890 
700.000000	 10.025990 
697.500000	 10.002490 
695.000000	 10.005423 
692.500000	 9.961858  
690.000000	 9.959279  
687.500000	 9.930473  
685.000000	 9.886865  
682.500000	 9.866522  
680.000000	 9.847342  
677.500000	 9.815594  
675.000000	 9.797879  
672.500000	 9.786755  
670.000000	 9.749875  
667.500000	 9.745125  
665.000000	 9.722422  
662.500000	 9.706923  
660.000000	 9.699231  
657.500000	 9.669292  
655.000000	 9.657969  
652.500000	 9.630549  
650.000000	 9.597233  
647.500000	 9.579798  
645.000000	 9.562497  
642.500000	 9.551107  
640.000000	 9.532358  
637.500000	 9.512919  
635.000000	 9.484058  
632.500000	 9.479538  
630.000000	 9.462296  
627.500000	 9.449282  
625.000000	 9.423304  
622.500000	 9.404149  
620.000000	 9.375065  
617.500000	 9.357392  
615.000000	 9.347637  
612.500000	 9.334979  
610.000000	 9.329733  
607.500000	 9.298765  
605.000000	 9.277774  
602.500000	 9.250319  
600.000000	 9.249678  
597.500000	 9.227440  
595.000000	 9.211150  
592.500000	 9.182495  
590.000000	 9.160936  
587.500000	 9.150888  
585.000000	 9.130447  
582.500000	 9.114260  
580.000000	 9.109230  
577.500000	 9.088689  
575.000000	 9.064821  
572.500000	 9.060830  
570.000000	 9.027415  
567.500000	 9.022944  
565.000000	 9.003226  
562.500000	 8.969323  
560.000000	 8.958966  
557.500000	 8.960591  
555.000000	 8.921333  
552.500000	 8.909463  
550.000000	 8.890233  
547.500000	 8.870405  
545.000000	 8.850274  
542.500000	 8.827804  
540.000000	 8.818213  
537.500000	 8.807559  
535.000000	 8.788129  
532.500000	 8.764000  
530.000000	 8.733126  
527.500000	 8.716934  
525.000000	 8.681600  
522.500000	 8.643176  
520.000000	 8.609961  
517.500000	 8.549030  
515.000000	 8.471751  
512.500000	 8.386305  
510.000000	 8.284998  
507.500000	 8.179893  
505.000000	 8.077644  
502.500000	 8.002387  
500.000000	 7.968936  
497.500000	 7.975134  
495.000000	 8.017314  
492.500000	 8.051037  
490.000000	 8.060868  
487.500000	 8.054824  
485.000000	 8.053348  
482.500000	 8.025914  
480.000000	 7.998891  
477.500000	 7.976026  
475.000000	 7.949861  
472.500000	 7.901629  
470.000000	 7.858534  
467.500000	 7.806410  
465.000000	 7.749472  
462.500000	 7.699590  
460.000000	 7.653334  
457.500000	 7.616478  
455.000000	 7.604147  
452.500000	 7.597547  
450.000000	 7.595319  
447.500000	 7.594730  
445.000000	 7.572979  
442.500000	 7.531512  
440.000000	 7.505684  
437.500000	 7.476330  
435.000000	 7.444714  
432.500000	 7.427789  
430.000000	 7.402792  
427.500000	 7.370955  
425.000000	 7.343613  
422.500000	 7.306419  
420.000000	 7.270781  
417.500000	 7.240469  
415.000000	 7.195380  
412.500000	 7.172673  
410.000000	 7.134365  
407.500000	 7.098647  
405.000000	 7.066370  
402.500000	 7.031003  
400.000000	 7.000309  
397.500000	 6.961320  
395.000000	 6.919737  
392.500000	 6.858780  
390.000000	 6.801580  
387.500000	 6.750434  
385.000000	 6.679418  
382.500000	 6.613669  
380.000000	 6.556757  
377.500000	 6.513340  
375.000000	 6.500786  
372.500000	 6.481937  
370.000000	 6.465289  
367.500000	 6.430155  
365.000000	 6.385280  
362.500000	 6.323297  
360.000000	 6.263191  
357.500000	 6.179990  
355.000000	 6.110616  
352.500000	 6.017705  
350.000000	 5.913838  

