PE UV                   SPECTRUM    ASCII       PEDS        1.5         
  -1
Z151624D.SP
96/07/31
13:39:56.00
96/07/31
13:39:56.00
FINN POULSEN
Z-FILTER NO.15160Y24. PRODUKTIONSUGE 26/96. MRK.D
350.000000
1









4444

SCAN
1
1


0.0

2.00
MANUAL



UV/VIS




































#HDR
-1
-1
#GR
NM
%T
0.00002384185791015625
0.0
1100.000000
2.500000
301
8
84.595084
-0.033587
#DATA
1100.000000	45.453082 
1097.500000	44.214222 
1095.000000	43.205742 
1092.500000	42.220553 
1090.000000	41.170167 
1087.500000	38.773207 
1085.000000	39.594358 
1082.500000	40.103247 
1080.000000	38.643596 
1077.500000	36.202288 
1075.000000	35.052648 
1072.500000	33.158948 
1070.000000	34.086522 
1067.500000	33.436076 
1065.000000	32.933279 
1062.500000	32.105234 
1060.000000	31.365036 
1057.500000	30.271140 
1055.000000	29.161502 
1052.500000	28.008023 
1050.000000	28.602620 
1047.500000	29.077751 
1045.000000	27.776883 
1042.500000	26.906130 
1040.000000	26.513642 
1037.500000	26.377403 
1035.000000	26.131124 
1032.500000	24.959712 
1030.000000	24.045513 
1027.500000	25.630670 
1025.000000	26.174713 
1022.500000	24.341627 
1020.000000	23.770998 
1017.500000	24.828344 
1015.000000	25.794647 
1012.500000	25.804473 
1010.000000	23.920603 
1007.500000	24.069518 
1005.000000	26.188765 
1002.500000	25.924842 
1000.000000	24.554931 
997.500000	 24.608663 
995.000000	 25.328280 
992.500000	 25.573657 
990.000000	 25.416909 
987.500000	 25.716568 
985.000000	 26.124041 
982.500000	 26.627377 
980.000000	 27.184854 
977.500000	 27.839589 
975.000000	 27.675048 
972.500000	 27.601232 
970.000000	 28.077914 
967.500000	 28.991909 
965.000000	 29.292500 
962.500000	 29.468277 
960.000000	 29.923574 
957.500000	 30.178146 
955.000000	 30.725780 
952.500000	 31.119691 
950.000000	 31.504011 
947.500000	 32.202484 
945.000000	 31.989118 
942.500000	 32.410614 
940.000000	 31.762475 
937.500000	 32.355467 
935.000000	 32.647911 
932.500000	 32.361594 
930.000000	 32.288577 
927.500000	 32.129481 
925.000000	 31.841128 
922.500000	 31.658090 
920.000000	 31.530593 
917.500000	 30.858786 
915.000000	 30.069047 
912.500000	 29.860887 
910.000000	 29.474307 
907.500000	 29.414292 
905.000000	 29.250053 
902.500000	 28.192151 
900.000000	 27.584725 
897.500000	 27.085794 
895.000000	 27.079422 
892.500000	 25.760469 
890.000000	 24.611985 
887.500000	 24.802990 
885.000000	 25.045591 
882.500000	 24.346501 
880.000000	 23.223380 
877.500000	 22.315000 
875.000000	 21.632620 
872.500000	 20.535833 
870.000000	 19.669810 
867.500000	 18.395005 
865.000000	 16.877039 
862.500000	 15.612263 
860.000000	 14.496597 
857.500000	 12.598773 
855.000000	 11.438858 
852.500000	 10.479415 
850.000000	 9.460359  
847.500000	 8.564930  
845.000000	 7.827148  
842.500000	 6.924315  
840.000000	 6.199633  
837.500000	 5.564202  
835.000000	 4.970638  
832.500000	 4.464981  
830.000000	 4.026172  
827.500000	 3.592514  
825.000000	 3.226794  
822.500000	 2.827820  
820.000000	 2.620866  
817.500000	 2.411485  
815.000000	 2.093905  
812.500000	 1.921843  
810.000000	 1.724474  
807.500000	 1.606436  
805.000000	 1.469071  
802.500000	 1.316119  
800.000000	 1.214552  
797.500000	 1.101014  
795.000000	 0.996149  
792.500000	 0.956364  
790.000000	 0.836703  
787.500000	 0.791703  
785.000000	 0.753285  
782.500000	 0.712992  
780.000000	 0.643758  
777.500000	 0.587923  
775.000000	 0.515420  
772.500000	 0.560091  
770.000000	 0.521297  
767.500000	 0.465609  
765.000000	 0.410293  
762.500000	 0.410030  
760.000000	 0.418165  
757.500000	 0.382371  
755.000000	 0.368437  
752.500000	 0.351591  
750.000000	 0.337564  
747.500000	 0.317956  
745.000000	 0.259588  
742.500000	 0.231681  
740.000000	 0.298665  
737.500000	 0.256667  
735.000000	 0.214909  
732.500000	 0.212142  
730.000000	 0.220430  
727.500000	 0.214873  
725.000000	 0.189658  
722.500000	 0.119970  
720.000000	 0.178496  
717.500000	 0.153417  
715.000000	 0.069770  
712.500000	 0.083675  
710.000000	 0.105967  
707.500000	 0.134003  
705.000000	 0.080973  
702.500000	 0.058654  
700.000000	 0.103248  
697.500000	 0.078172  
695.000000	 0.064252  
692.500000	 0.072524  
690.000000	 0.005576  
687.500000	 0.072496  
685.000000	 0.097656  
682.500000	 0.136650  
680.000000	 0.133992  
677.500000	 0.153417  
675.000000	 0.128337  
672.500000	 0.214795  
670.000000	 0.206513  
667.500000	 0.178855  
665.000000	 0.231960  
662.500000	 0.170452  
660.000000	 0.117380  
657.500000	 0.069863  
655.000000	 0.058693  
652.500000	 0.064303  
650.000000	 0.036329  
647.500000	 0.022375  
645.000000	 -0.011191 
642.500000	 0.033570  
640.000000	 0.064299  
637.500000	 -0.033587 
635.000000	 -0.002799 
632.500000	 0.036369  
630.000000	 0.005597  
627.500000	 0.014005  
625.000000	 -0.016803 
622.500000	 0.030815  
620.000000	 0.014002  
617.500000	 -0.002801 
615.000000	 0.008401  
612.500000	 0.005603  
610.000000	 0.033622  
607.500000	 -0.019621 
605.000000	 0.019629  
602.500000	 0.036477  
600.000000	 0.005610  
597.500000	 -0.008414 
595.000000	 -0.002805 
592.500000	 0.022433  
590.000000	 0.036464  
587.500000	 -0.005612 
585.000000	 0.005614  
582.500000	 0.039304  
580.000000	 0.072998  
577.500000	 0.042132  
575.000000	 0.014053  
572.500000	 0.056220  
570.000000	 0.075883  
567.500000	 0.053426  
565.000000	 0.033782  
562.500000	 0.019706  
560.000000	 0.028169  
557.500000	 0.078911  
555.000000	 0.078928  
552.500000	 0.101557  
550.000000	 0.135382  
547.500000	 0.177810  
545.000000	 0.220208  
542.500000	 0.229046  
540.000000	 0.280119  
537.500000	 0.359518  
535.000000	 0.509972  
532.500000	 0.677226  
530.000000	 0.785837  
527.500000	 1.106571  
525.000000	 1.474591  
522.500000	 1.927219  
520.000000	 2.442471  
517.500000	 3.018516  
515.000000	 3.710138  
512.500000	 4.407100  
510.000000	 5.175172  
507.500000	 6.028272  
505.000000	 6.992836  
502.500000	 8.177789  
500.000000	 9.470692  
497.500000	 11.027649 
495.000000	 12.754714 
492.500000	 14.558739 
490.000000	 16.420199 
487.500000	 18.183815 
485.000000	 19.996697 
482.500000	 21.918827 
480.000000	 24.206809 
477.500000	 27.133902 
475.000000	 30.960461 
472.500000	 36.117387 
470.000000	 42.682960 
467.500000	 50.547460 
465.000000	 59.243169 
462.500000	 67.679904 
460.000000	 74.678834 
457.500000	 79.519934 
455.000000	 82.174030 
452.500000	 83.409800 
450.000000	 83.863586 
447.500000	 84.144306 
445.000000	 84.421075 
442.500000	 84.595084 
440.000000	 84.548353 
437.500000	 84.280881 
435.000000	 83.523008 
432.500000	 82.181648 
430.000000	 80.081994 
427.500000	 76.988472 
425.000000	 72.668023 
422.500000	 66.888327 
420.000000	 59.721152 
417.500000	 51.307504 
415.000000	 42.469896 
412.500000	 33.784860 
410.000000	 25.818241 
407.500000	 18.782116 
405.000000	 12.910759 
402.500000	 8.359175  
400.000000	 5.038674  
397.500000	 2.912461  
395.000000	 1.701146  
392.500000	 1.039181  
390.000000	 0.682303  
387.500000	 0.441071  
385.000000	 0.312123  
382.500000	 0.268463  
380.000000	 0.227391  
377.500000	 0.180446  
375.000000	 0.158383  
372.500000	 0.112279  
370.000000	 0.054803  
367.500000	 0.035622  
365.000000	 0.073919  
362.500000	 0.024628  
360.000000	 -0.008213 
357.500000	 0.005475  
355.000000	 0.005470  
352.500000	 0.016414  
350.000000	 -0.010948 

