PE UV                   SPECTRUM    ASCII       PEDS        1.5         
  -1
Z151624G.SP
96/07/31
13:50:49.00
96/07/31
13:50:49.00
FINN POULSEN
Z-FILTER NO.15160Y24. PRODUKTIONSUGE 26/96. MRK.G
350.000000
1









4444

SCAN
1
1


0.0

2.00
MANUAL



UV/VIS




































#HDR
-1
-1
#GR
NM
%T
0.00002384185791015625
0.0
1100.000000
2.500000
301
8
85.205343
-0.019595
#DATA
1100.000000	47.965888 
1097.500000	46.460449 
1095.000000	45.059330 
1092.500000	43.864117 
1090.000000	42.710565 
1087.500000	40.447083 
1085.000000	40.499664 
1082.500000	41.253410 
1080.000000	39.967373 
1077.500000	37.437185 
1075.000000	36.217863 
1072.500000	35.734685 
1070.000000	35.426718 
1067.500000	34.189225 
1065.000000	33.682373 
1062.500000	32.669568 
1060.000000	32.050904 
1057.500000	31.401342 
1055.000000	30.780837 
1052.500000	29.829506 
1050.000000	28.482799 
1047.500000	28.031903 
1045.000000	28.149637 
1042.500000	28.297780 
1040.000000	28.343469 
1037.500000	26.675437 
1035.000000	26.131124 
1032.500000	24.857649 
1030.000000	24.010461 
1027.500000	25.722208 
1025.000000	26.021314 
1022.500000	24.018829 
1020.000000	23.467275 
1017.500000	24.426027 
1015.000000	25.196324 
1012.500000	25.121970 
1010.000000	23.342785 
1007.500000	23.622994 
1005.000000	25.632633 
1002.500000	25.432834 
1000.000000	24.022988 
997.500000	 23.938565 
995.000000	 24.559624 
992.500000	 24.639301 
990.000000	 24.244269 
987.500000	 24.701651 
985.000000	 25.292614 
982.500000	 25.770158 
980.000000	 26.114122 
977.500000	 26.273291 
975.000000	 26.300958 
972.500000	 26.931661 
970.000000	 27.522521 
967.500000	 28.339897 
965.000000	 28.976699 
962.500000	 29.356504 
960.000000	 29.407834 
957.500000	 29.376886 
955.000000	 29.859852 
952.500000	 30.539209 
950.000000	 31.280879 
947.500000	 32.592493 
945.000000	 32.373179 
942.500000	 32.485213 
940.000000	 31.423383 
937.500000	 31.915293 
935.000000	 32.497584 
932.500000	 32.407060 
930.000000	 32.566466 
927.500000	 32.627073 
925.000000	 32.759956 
922.500000	 33.004505 
920.000000	 33.205138 
917.500000	 32.627984 
915.000000	 32.446737 
912.500000	 31.695133 
910.000000	 31.137789 
907.500000	 31.210892 
905.000000	 30.447062 
902.500000	 30.558278 
900.000000	 29.314141 
897.500000	 28.530011 
895.000000	 28.387944 
892.500000	 27.527500 
890.000000	 26.312244 
887.500000	 25.023533 
885.000000	 24.176678 
882.500000	 23.745122 
880.000000	 23.738033 
877.500000	 22.266827 
875.000000	 21.027549 
872.500000	 20.083054 
870.000000	 18.948521 
867.500000	 17.570632 
865.000000	 16.291383 
862.500000	 14.687941 
860.000000	 13.786636 
857.500000	 12.164999 
855.000000	 11.081567 
852.500000	 10.118535 
850.000000	 9.068954  
847.500000	 8.162755  
845.000000	 7.491540  
842.500000	 6.621689  
840.000000	 5.982882  
837.500000	 5.439132  
835.000000	 4.937240  
832.500000	 4.459414  
830.000000	 3.906445  
827.500000	 3.439344  
825.000000	 3.118213  
822.500000	 2.783200  
820.000000	 2.537221  
817.500000	 2.299972  
815.000000	 2.144091  
812.500000	 1.927421  
810.000000	 1.682685  
807.500000	 1.573027  
805.000000	 1.402168  
802.500000	 1.199007  
800.000000	 1.189481  
797.500000	 1.081502  
795.000000	 0.968245  
792.500000	 0.900599  
790.000000	 0.797657  
787.500000	 0.836306  
785.000000	 0.722595  
782.500000	 0.690711  
780.000000	 0.635398  
777.500000	 0.568419  
775.000000	 0.537709  
772.500000	 0.501574  
770.000000	 0.479482  
767.500000	 0.501854  
765.000000	 0.407502  
762.500000	 0.410030  
760.000000	 0.381924  
757.500000	 0.368416  
755.000000	 0.396349  
752.500000	 0.290202  
750.000000	 0.298507  
747.500000	 0.331901  
745.000000	 0.312622  
742.500000	 0.281926  
740.000000	 0.223301  
737.500000	 0.259457  
735.000000	 0.237237  
732.500000	 0.226099  
730.000000	 0.228801  
727.500000	 0.212083  
725.000000	 0.225916  
722.500000	 0.133921  
720.000000	 0.158973  
717.500000	 0.164574  
715.000000	 0.106050  
712.500000	 0.086464  
710.000000	 0.072504  
707.500000	 0.142378  
705.000000	 0.111688  
702.500000	 0.050275  
700.000000	 0.083714  
697.500000	 0.069797  
695.000000	 0.086601  
692.500000	 0.092050  
690.000000	 0.022307  
687.500000	 0.055766  
685.000000	 0.041852  
682.500000	 0.111551  
680.000000	 0.153532  
677.500000	 0.145048  
675.000000	 0.128337  
672.500000	 0.170162  
670.000000	 0.226048  
667.500000	 0.215185  
665.000000	 0.215191  
662.500000	 0.209573  
660.000000	 0.162097  
657.500000	 0.100603  
655.000000	 0.033539  
652.500000	 0.030753  
650.000000	 0.097809  
647.500000	 0.050345  
645.000000	 0.022382  
642.500000	 0.019582  
640.000000	 0.039138  
637.500000	 0.027989  
635.000000	 -0.019595 
632.500000	 0.013988  
630.000000	 0.039182  
627.500000	 0.011204  
625.000000	 -0.008401 
622.500000	 -0.011205 
620.000000	 0.039205  
617.500000	 0.016807  
615.000000	 0.002800  
612.500000	 0.005603  
610.000000	 0.011207  
607.500000	 0.022424  
605.000000	 0.028041  
602.500000	 0.008417  
600.000000	 0.016830  
597.500000	 0.000000  
595.000000	 -0.002805 
592.500000	 -0.008412 
590.000000	 0.011219  
587.500000	 0.050510  
585.000000	 0.022458  
582.500000	 0.016844  
580.000000	 0.064575  
577.500000	 0.058985  
575.000000	 0.047780  
572.500000	 0.039354  
570.000000	 0.064641  
567.500000	 0.087169  
565.000000	 0.045043  
562.500000	 0.025337  
560.000000	 0.047887  
557.500000	 0.050728  
555.000000	 0.076109  
552.500000	 0.141051  
550.000000	 0.160767  
547.500000	 0.115717  
545.000000	 0.163744  
542.500000	 0.217735  
540.000000	 0.297096  
537.500000	 0.351026  
535.000000	 0.393812  
532.500000	 0.600719  
530.000000	 0.729098  
527.500000	 0.964703  
525.000000	 1.273253  
522.500000	 1.694819  
520.000000	 2.205009  
517.500000	 2.733857  
515.000000	 3.415905  
512.500000	 4.120527  
510.000000	 4.849655  
507.500000	 5.684423  
505.000000	 6.614407  
502.500000	 7.753457  
500.000000	 9.022899  
497.500000	 10.475728 
495.000000	 12.153154 
492.500000	 13.969846 
490.000000	 15.886186 
487.500000	 17.673064 
485.000000	 19.402327 
482.500000	 21.263053 
480.000000	 23.376372 
477.500000	 26.112169 
475.000000	 29.514664 
472.500000	 34.075502 
470.000000	 40.139817 
467.500000	 47.616695 
465.000000	 56.049180 
462.500000	 64.751865 
460.000000	 72.440859 
457.500000	 78.212639 
455.000000	 81.686093 
452.500000	 83.322926 
450.000000	 84.152320 
447.500000	 84.628429 
445.000000	 84.918041 
442.500000	 85.205343 
440.000000	 85.147616 
437.500000	 84.836482 
435.000000	 84.026059 
432.500000	 82.660103 
430.000000	 80.665309 
427.500000	 77.882631 
425.000000	 74.007259 
422.500000	 68.608485 
420.000000	 62.256627 
417.500000	 54.310226 
415.000000	 45.356573 
412.500000	 36.516004 
410.000000	 28.233806 
407.500000	 20.832073 
405.000000	 14.485108 
402.500000	 9.481599  
400.000000	 5.771024  
397.500000	 3.334795  
395.000000	 1.934368  
392.500000	 1.162567  
390.000000	 0.753548  
387.500000	 0.501342  
385.000000	 0.323075  
382.500000	 0.232851  
380.000000	 0.208213  
377.500000	 0.188648  
375.000000	 0.150191  
372.500000	 0.123233  
370.000000	 0.071244  
367.500000	 0.019181  
365.000000	 0.043804  
362.500000	 0.035574  
360.000000	 0.008213  
357.500000	 -0.008212 
355.000000	 0.005470  
352.500000	 0.051980  
350.000000	 -0.002737 

