PE UV                   SPECTRUM    ASCII       PEDS        1.5         
  -1
Z151624H.SP
96/07/31
13:54:21.00
96/07/31
13:54:21.00
FINN POULSEN
Z-FILTER NO.15160Y24. PRODUKTIONSUGE 26/96. MRK.H
350.000000
1









4444

SCAN
1
1


0.0

2.00
MANUAL



UV/VIS




































#HDR
-1
-1
#GR
NM
%T
0.00002384185791015625
0.0
1100.000000
2.500000
301
8
85.117378
-0.025194
#DATA
1100.000000	46.335380 
1097.500000	45.369501 
1095.000000	44.895936 
1092.500000	44.193902 
1090.000000	43.281183 
1087.500000	41.215508 
1085.000000	41.598388 
1082.500000	41.769646 
1080.000000	39.804241 
1077.500000	36.605901 
1075.000000	35.335934 
1072.500000	33.537968 
1070.000000	34.512705 
1067.500000	34.122219 
1065.000000	33.623305 
1062.500000	32.704503 
1060.000000	32.072337 
1057.500000	31.275167 
1055.000000	30.629950 
1052.500000	29.764453 
1050.000000	28.597294 
1047.500000	28.005493 
1045.000000	27.988736 
1042.500000	27.411208 
1040.000000	26.702007 
1037.500000	26.170658 
1035.000000	26.050712 
1032.500000	24.959712 
1030.000000	24.075172 
1027.500000	25.657593 
1025.000000	26.091285 
1022.500000	24.137188 
1020.000000	23.523719 
1017.500000	24.428709 
1015.000000	25.092152 
1012.500000	24.892692 
1010.000000	22.981648 
1007.500000	22.807486 
1005.000000	24.730581 
1002.500000	24.863700 
1000.000000	23.603314 
997.500000	 23.407848 
995.000000	 24.282054 
992.500000	 24.769738 
990.000000	 24.429562 
987.500000	 24.131592 
985.000000	 24.326651 
982.500000	 24.813822 
980.000000	 25.318416 
977.500000	 26.119362 
975.000000	 26.453933 
972.500000	 26.628759 
970.000000	 27.110626 
967.500000	 27.546838 
965.000000	 28.021336 
962.500000	 28.281349 
960.000000	 28.488589 
957.500000	 28.434069 
955.000000	 29.004582 
952.500000	 30.504593 
950.000000	 30.377729 
947.500000	 30.805396 
945.000000	 31.837093 
942.500000	 32.764959 
940.000000	 32.734360 
937.500000	 32.409147 
935.000000	 32.341887 
932.500000	 31.692966 
930.000000	 31.519038 
927.500000	 31.832530 
925.000000	 31.889206 
922.500000	 32.066014 
920.000000	 32.540127 
917.500000	 32.671004 
915.000000	 32.325837 
912.500000	 31.826726 
910.000000	 31.242766 
907.500000	 30.442839 
905.000000	 29.836453 
902.500000	 28.777721 
900.000000	 28.820022 
897.500000	 28.546118 
895.000000	 28.404032 
892.500000	 26.892767 
890.000000	 25.536214 
887.500000	 25.397380 
885.000000	 25.324501 
882.500000	 24.274335 
880.000000	 22.922055 
877.500000	 21.281948 
875.000000	 20.604535 
872.500000	 19.729403 
870.000000	 18.855020 
867.500000	 17.623989 
865.000000	 16.128255 
862.500000	 14.980954 
860.000000	 13.714301 
857.500000	 12.137370 
855.000000	 11.172967 
852.500000	 10.204591 
850.000000	 9.068954  
847.500000	 8.140566  
845.000000	 7.386143  
842.500000	 6.649453  
840.000000	 6.046795  
837.500000	 5.489160  
835.000000	 4.914975  
832.500000	 4.364770  
830.000000	 3.836836  
827.500000	 3.436560  
825.000000	 3.237930  
822.500000	 2.914272  
820.000000	 2.651536  
817.500000	 2.358516  
815.000000	 2.135727  
812.500000	 1.972050  
810.000000	 1.755119  
807.500000	 1.659335  
805.000000	 1.522036  
802.500000	 1.352368  
800.000000	 1.242409  
797.500000	 1.151187  
795.000000	 1.024052  
792.500000	 0.984246  
790.000000	 0.881327  
787.500000	 0.853033  
785.000000	 0.795134  
782.500000	 0.729703  
780.000000	 0.693921  
777.500000	 0.657583  
775.000000	 0.579500  
772.500000	 0.560091  
770.000000	 0.507359  
767.500000	 0.487913  
765.000000	 0.468907  
762.500000	 0.421187  
760.000000	 0.393075  
757.500000	 0.396326  
755.000000	 0.393557  
752.500000	 0.348801  
750.000000	 0.298507  
747.500000	 0.337479  
745.000000	 0.320995  
742.500000	 0.273551  
740.000000	 0.309830  
737.500000	 0.276196  
735.000000	 0.259566  
732.500000	 0.248429  
730.000000	 0.226010  
727.500000	 0.239988  
725.000000	 0.259385  
722.500000	 0.150661  
720.000000	 0.178496  
717.500000	 0.214783  
715.000000	 0.142330  
712.500000	 0.117145  
710.000000	 0.103179  
707.500000	 0.136795  
705.000000	 0.122856  
702.500000	 0.069826  
700.000000	 0.097667  
697.500000	 0.103300  
695.000000	 0.094982  
692.500000	 0.111576  
690.000000	 0.019518  
687.500000	 0.117109  
685.000000	 0.122767  
682.500000	 0.150594  
680.000000	 0.142366  
677.500000	 0.186889  
675.000000	 0.119967  
672.500000	 0.198058  
670.000000	 0.267909  
667.500000	 0.209596  
665.000000	 0.279470  
662.500000	 0.237516  
660.000000	 0.212403  
657.500000	 0.187234  
655.000000	 0.095027  
652.500000	 0.078282  
650.000000	 0.083836  
647.500000	 0.041954  
645.000000	 0.039168  
642.500000	 0.025177  
640.000000	 0.058708  
637.500000	 0.019592  
635.000000	 -0.025194 
632.500000	 0.027976  
630.000000	 0.019591  
627.500000	 0.000000  
625.000000	 0.000000  
622.500000	 -0.011205 
620.000000	 0.025203  
617.500000	 0.033615  
615.000000	 0.000000  
612.500000	 -0.016809 
610.000000	 0.011207  
607.500000	 0.025227  
605.000000	 0.039258  
602.500000	 0.022447  
600.000000	 0.000000  
597.500000	 0.011219  
595.000000	 0.016831  
592.500000	 0.030846  
590.000000	 0.042074  
587.500000	 0.016836  
585.000000	 0.016843  
582.500000	 0.008422  
580.000000	 0.056152  
577.500000	 0.067411  
575.000000	 0.005621  
572.500000	 0.039354  
570.000000	 0.059020  
567.500000	 0.064673  
565.000000	 0.059119  
562.500000	 0.039413  
560.000000	 0.053521  
557.500000	 0.070456  
555.000000	 0.076109  
552.500000	 0.093094  
550.000000	 0.169228  
547.500000	 0.160876  
545.000000	 0.155275  
542.500000	 0.197941  
540.000000	 0.260313  
537.500000	 0.336871  
535.000000	 0.402311  
532.500000	 0.580884  
530.000000	 0.746120  
527.500000	 0.964703  
525.000000	 1.295939  
522.500000	 1.700487  
520.000000	 2.171086  
517.500000	 2.756404  
515.000000	 3.399092  
512.500000	 4.098269  
510.000000	 4.863448  
507.500000	 5.673507  
505.000000	 6.587376  
502.500000	 7.718544  
500.000000	 8.947820  
497.500000	 10.400344 
495.000000	 12.006828 
492.500000	 13.768096 
490.000000	 15.664366 
487.500000	 17.390229 
485.000000	 19.193197 
482.500000	 21.006805 
480.000000	 23.205319 
477.500000	 25.924391 
475.000000	 29.280136 
472.500000	 33.995591 
470.000000	 39.982935 
467.500000	 47.471254 
465.000000	 56.019125 
462.500000	 64.738246 
460.000000	 72.470735 
457.500000	 78.177379 
455.000000	 81.496340 
452.500000	 83.303922 
450.000000	 84.106014 
447.500000	 84.499876 
445.000000	 84.871365 
442.500000	 85.056902 
440.000000	 85.117378 
437.500000	 84.907995 
435.000000	 84.067293 
432.500000	 82.819589 
430.000000	 80.901937 
427.500000	 78.077970 
425.000000	 74.155758 
422.500000	 68.833809 
420.000000	 62.229127 
417.500000	 54.216734 
415.000000	 45.356573 
412.500000	 36.609424 
410.000000	 28.459149 
407.500000	 21.131598 
405.000000	 14.787339 
402.500000	 9.654491  
400.000000	 5.902682  
397.500000	 3.397871  
395.000000	 1.939856  
392.500000	 1.146116  
390.000000	 0.723406  
387.500000	 0.506821  
385.000000	 0.355930  
382.500000	 0.202717  
380.000000	 0.219172  
377.500000	 0.213254  
375.000000	 0.147460  
372.500000	 0.158834  
370.000000	 0.098646  
367.500000	 0.010960  
365.000000	 0.062968  
362.500000	 0.054730  
360.000000	 0.019164  
357.500000	 0.024637  
355.000000	 -0.002735 
352.500000	 0.060188  
350.000000	 0.032844  

