PE UV                   SPECTRUM    ASCII       PEDS        1.5         
  -1
Z151624B.SP
96/07/31
13:15:28.00
96/07/31
13:15:28.00
FINN POULSEN
Z-FILTER NO.15160Y24. PRODUKTIONSUGE 26/96. MRK.B
350.000000
1









4444

SCAN
1
1


0.0

2.00
MANUAL



UV/VIS




































#HDR
-1
-1
#GR
NM
%T
0.00002384185791015625
0.0
1100.000000
2.500000
301
8
84.850733
-0.025245
#DATA
1100.000000	46.450695 
1097.500000	44.801243 
1095.000000	43.264672 
1092.500000	41.821057 
1090.000000	40.570081 
1087.500000	38.590504 
1085.000000	39.075889 
1082.500000	40.148718 
1080.000000	39.258684 
1077.500000	36.611247 
1075.000000	35.389384 
1072.500000	33.401841 
1070.000000	34.188377 
1067.500000	33.355668 
1065.000000	32.557390 
1062.500000	31.922498 
1060.000000	31.190890 
1057.500000	30.169127 
1055.000000	29.829713 
1052.500000	29.303661 
1050.000000	28.102034 
1047.500000	27.437671 
1045.000000	27.479216 
1042.500000	27.695986 
1040.000000	27.635756 
1037.500000	26.001503 
1035.000000	25.410099 
1032.500000	24.325848 
1030.000000	23.557484 
1027.500000	25.189133 
1025.000000	25.633780 
1022.500000	23.827841 
1020.000000	23.421583 
1017.500000	24.420663 
1015.000000	25.372616 
1012.500000	25.097976 
1010.000000	23.032475 
1007.500000	23.171122 
1005.000000	25.209547 
1002.500000	25.323794 
1000.000000	24.292969 
997.500000	 24.332582 
995.000000	 24.829187 
992.500000	 24.788372 
990.000000	 24.387209 
987.500000	 24.565796 
985.000000	 25.330283 
982.500000	 26.150549 
980.000000	 26.947211 
977.500000	 27.688360 
975.000000	 27.420090 
972.500000	 26.822722 
970.000000	 26.871462 
967.500000	 27.671918 
965.000000	 28.544132 
962.500000	 29.164892 
960.000000	 30.014430 
957.500000	 30.562752 
955.000000	 30.837685 
952.500000	 30.616429 
950.000000	 30.553046 
947.500000	 31.278215 
945.000000	 31.242332 
942.500000	 31.771194 
940.000000	 31.407363 
937.500000	 32.725857 
935.000000	 33.600880 
932.500000	 33.249531 
930.000000	 32.732130 
927.500000	 32.289994 
925.000000	 31.293570 
922.500000	 31.370144 
920.000000	 31.567983 
917.500000	 31.654656 
915.000000	 31.229682 
912.500000	 31.166075 
910.000000	 30.505235 
907.500000	 29.583478 
905.000000	 29.465246 
902.500000	 28.308735 
900.000000	 27.920403 
897.500000	 27.778374 
895.000000	 27.744409 
892.500000	 26.863182 
890.000000	 25.525436 
887.500000	 24.372663 
885.000000	 23.809268 
882.500000	 23.413695 
880.000000	 23.167382 
877.500000	 21.795798 
875.000000	 21.180155 
872.500000	 19.879437 
870.000000	 18.579862 
867.500000	 17.143771 
865.000000	 15.892923 
862.500000	 14.789163 
860.000000	 13.266891 
857.500000	 11.756092 
855.000000	 10.571942 
852.500000	 9.377342  
850.000000	 8.397179  
847.500000	 7.682920  
845.000000	 7.025572  
842.500000	 6.327391  
840.000000	 5.613294  
837.500000	 4.969427  
835.000000	 4.422365  
832.500000	 4.105890  
830.000000	 3.797856  
827.500000	 3.378077  
825.000000	 3.048610  
822.500000	 2.685593  
820.000000	 2.495399  
817.500000	 2.316699  
815.000000	 2.102269  
812.500000	 1.885581  
810.000000	 1.657612  
807.500000	 1.589732  
805.000000	 1.505310  
802.500000	 1.310542  
800.000000	 1.181124  
797.500000	 1.087077  
795.000000	 0.962665  
792.500000	 0.950787  
790.000000	 0.811602  
787.500000	 0.822368  
785.000000	 0.728175  
782.500000	 0.657290  
780.000000	 0.627037  
777.500000	 0.579564  
775.000000	 0.534923  
772.500000	 0.532226  
770.000000	 0.459968  
767.500000	 0.476761  
765.000000	 0.399129  
762.500000	 0.412819  
760.000000	 0.370773  
757.500000	 0.301431  
755.000000	 0.390766  
752.500000	 0.323687  
750.000000	 0.306876  
747.500000	 0.304010  
745.000000	 0.262379  
742.500000	 0.267969  
740.000000	 0.231675  
737.500000	 0.237138  
735.000000	 0.192581  
732.500000	 0.170272  
730.000000	 0.212059  
727.500000	 0.153481  
725.000000	 0.178501  
722.500000	 0.117180  
720.000000	 0.089248  
717.500000	 0.125523  
715.000000	 0.080933  
712.500000	 0.111566  
710.000000	 0.092024  
707.500000	 0.075376  
705.000000	 0.055844  
702.500000	 0.039102  
700.000000	 0.114410  
697.500000	 0.069797  
695.000000	 0.036316  
692.500000	 0.075313  
690.000000	 -0.008365 
687.500000	 0.041824  
685.000000	 0.089285  
682.500000	 0.092029  
680.000000	 0.100494  
677.500000	 0.147838  
675.000000	 0.108807  
672.500000	 0.150636  
670.000000	 0.209304  
667.500000	 0.215185  
665.000000	 0.223576  
662.500000	 0.103389  
660.000000	 0.086638  
657.500000	 0.039123  
655.000000	 0.027949  
652.500000	 0.025162  
650.000000	 0.008383  
647.500000	 0.033563  
645.000000	 0.025179  
642.500000	 0.027975  
640.000000	 0.053117  
637.500000	 -0.013994 
635.000000	 0.027993  
632.500000	 0.039167  
630.000000	 -0.002798 
627.500000	 0.014005  
625.000000	 -0.025205 
622.500000	 0.025212  
620.000000	 0.036405  
617.500000	 -0.011205 
615.000000	 0.044809  
612.500000	 -0.019611 
610.000000	 0.022415  
607.500000	 0.025227  
605.000000	 0.022433  
602.500000	 0.036477  
600.000000	 -0.025245 
597.500000	 0.016829  
595.000000	 0.039273  
592.500000	 0.030846  
590.000000	 0.044879  
587.500000	 0.008418  
585.000000	 0.042109  
582.500000	 0.044919  
580.000000	 0.016845  
577.500000	 0.053367  
575.000000	 0.014053  
572.500000	 0.050598  
570.000000	 0.073072  
567.500000	 0.047802  
565.000000	 0.078826  
562.500000	 0.064750  
560.000000	 0.053521  
557.500000	 0.084547  
555.000000	 0.087385  
552.500000	 0.078988  
550.000000	 0.174869  
547.500000	 0.172165  
545.000000	 0.189153  
542.500000	 0.212080  
540.000000	 0.288608  
537.500000	 0.438782  
535.000000	 0.490140  
532.500000	 0.665892  
530.000000	 0.842577  
527.500000	 1.103733  
525.000000	 1.491606  
522.500000	 1.890375  
520.000000	 2.402894  
517.500000	 2.973422  
515.000000	 3.609258  
512.500000	 4.298592  
510.000000	 5.037241  
507.500000	 5.829057  
505.000000	 6.800919  
502.500000	 7.933395  
500.000000	 9.269587  
497.500000	 10.766497 
495.000000	 12.453934 
492.500000	 14.297009 
490.000000	 16.228502 
487.500000	 18.123403 
485.000000	 19.949918 
482.500000	 21.932604 
480.000000	 24.355790 
477.500000	 27.379670 
475.000000	 31.230858 
472.500000	 36.403968 
470.000000	 42.908650 
467.500000	 50.805411 
465.000000	 59.428961 
462.500000	 67.903252 
460.000000	 74.915125 
457.500000	 79.750474 
455.000000	 82.491190 
452.500000	 83.730147 
450.000000	 84.244933 
447.500000	 84.565520 
445.000000	 84.745064 
442.500000	 84.850733 
440.000000	 84.793006 
437.500000	 84.575184 
435.000000	 83.913354 
432.500000	 82.651854 
430.000000	 80.563504 
427.500000	 77.321374 
425.000000	 72.725772 
422.500000	 66.456913 
420.000000	 58.700912 
417.500000	 50.064619 
415.000000	 41.048551 
412.500000	 32.529193 
410.000000	 24.925114 
407.500000	 18.196806 
405.000000	 12.520606 
402.500000	 8.049068  
400.000000	 4.832958  
397.500000	 2.778082  
395.000000	 1.643527  
392.500000	 1.011762  
390.000000	 0.654902  
387.500000	 0.438332  
385.000000	 0.298433  
382.500000	 0.254766  
380.000000	 0.208213  
377.500000	 0.213254  
375.000000	 0.161114  
372.500000	 0.112279  
370.000000	 0.095906  
367.500000	 0.057543  
365.000000	 0.019164  
362.500000	 0.021892  
360.000000	 0.019164  
357.500000	 0.030113  
355.000000	 0.016411  
352.500000	 0.019150  
350.000000	 0.024633  

