PE UV       SUBTECH     SPECTRUM    ASCII       PEDS        1.5         
  -1
OPALRETJ.SP
96/08/07
14:24:34.00
96/08/07
14:48:49.00
FINN POULSEN
OPALGLAS COLORANALYSATOR. RETTET TRANSMITTANS. J
350.000000
1









4444

SCAN
1
1


0.0

2.00
MANUAL



UV/VIS




































#HDR
-1
-1
#GR
NM
%T
0.00002384185791015625
0.0
1100.000000
2.500000
301
8
41.571470
6.134104
#DATA
1100.000000	41.571470 
1097.500000	40.835731 
1095.000000	40.077924 
1092.500000	39.358829 
1090.000000	38.640360 
1087.500000	37.856798 
1085.000000	37.183325 
1082.500000	36.509827 
1080.000000	35.794806 
1077.500000	35.157013 
1075.000000	34.511233 
1072.500000	33.838533 
1070.000000	33.224391 
1067.500000	32.589242 
1065.000000	32.008955 
1062.500000	31.406781 
1060.000000	30.858764 
1057.500000	30.298266 
1055.000000	29.707261 
1052.500000	29.142748 
1050.000000	28.633769 
1047.500000	28.123905 
1045.000000	27.633320 
1042.500000	27.165836 
1040.000000	26.690531 
1037.500000	26.237077 
1035.000000	25.817373 
1032.500000	25.384686 
1030.000000	24.945782 
1027.500000	24.507997 
1025.000000	24.093069 
1022.500000	23.697819 
1020.000000	23.282471 
1017.500000	22.882846 
1015.000000	22.500109 
1012.500000	22.151834 
1010.000000	21.805385 
1007.500000	21.474858 
1005.000000	21.162450 
1002.500000	20.844552 
1000.000000	20.535877 
997.500000	 20.242107 
995.000000	 19.952608 
992.500000	 19.690314 
990.000000	 19.465693 
987.500000	 19.227254 
985.000000	 18.969066 
982.500000	 18.702329 
980.000000	 18.448025 
977.500000	 18.176213 
975.000000	 17.911073 
972.500000	 17.647013 
970.000000	 17.372583 
967.500000	 17.095381 
965.000000	 16.820186 
962.500000	 16.600945 
960.000000	 16.386736 
957.500000	 16.184839 
955.000000	 15.984180 
952.500000	 15.762900 
950.000000	 15.571762 
947.500000	 15.398999 
945.000000	 15.197902 
942.500000	 15.018401 
940.000000	 14.844880 
937.500000	 14.683486 
935.000000	 14.517891 
932.500000	 14.355764 
930.000000	 14.188926 
927.500000	 14.042720 
925.000000	 13.918625 
922.500000	 13.768148 
920.000000	 13.644710 
917.500000	 13.543691 
915.000000	 13.345462 
912.500000	 13.271204 
910.000000	 13.170959 
907.500000	 13.055861 
905.000000	 12.929819 
902.500000	 12.854843 
900.000000	 12.745260 
897.500000	 12.663984 
895.000000	 12.586620 
892.500000	 12.483155 
890.000000	 12.358344 
887.500000	 12.267836 
885.000000	 12.215542 
882.500000	 12.119691 
880.000000	 12.025024 
877.500000	 11.956392 
875.000000	 11.862447 
872.500000	 11.792033 
870.000000	 11.685513 
867.500000	 11.616322 
865.000000	 11.592877 
862.500000	 11.524346 
860.000000	 11.794306 
857.500000	 12.714488 
855.000000	 12.473412 
852.500000	 12.474643 
850.000000	 12.363183 
847.500000	 12.165225 
845.000000	 12.099445 
842.500000	 11.979054 
840.000000	 11.978041 
837.500000	 11.877235 
835.000000	 11.832074 
832.500000	 11.737649 
830.000000	 11.614717 
827.500000	 11.619005 
825.000000	 11.589760 
822.500000	 11.527970 
820.000000	 11.511734 
817.500000	 11.456248 
815.000000	 11.405362 
812.500000	 11.385926 
810.000000	 11.328457 
807.500000	 11.292567 
805.000000	 11.246026 
802.500000	 11.208138 
800.000000	 11.192419 
797.500000	 11.165566 
795.000000	 11.142922 
792.500000	 11.135905 
790.000000	 11.101717 
787.500000	 11.036108 
785.000000	 11.052603 
782.500000	 11.017552 
780.000000	 10.985329 
777.500000	 10.984325 
775.000000	 10.971951 
772.500000	 10.902107 
770.000000	 10.880713 
767.500000	 10.878839 
765.000000	 10.812984 
762.500000	 10.831172 
760.000000	 10.819827 
757.500000	 10.811126 
755.000000	 10.759897 
752.500000	 10.760786 
750.000000	 10.740208 
747.500000	 10.709418 
745.000000	 10.683460 
742.500000	 10.685067 
740.000000	 10.664309 
737.500000	 10.622785 
735.000000	 10.606955 
732.500000	 10.597419 
730.000000	 10.561021 
727.500000	 10.573581 
725.000000	 10.570847 
722.500000	 10.535602 
720.000000	 10.513259 
717.500000	 10.458158 
715.000000	 10.436369 
712.500000	 10.425366 
710.000000	 10.395612 
707.500000	 10.369064 
705.000000	 10.350799 
702.500000	 10.308776 
700.000000	 10.268592 
697.500000	 10.270140 
695.000000	 10.248493 
692.500000	 10.229712 
690.000000	 10.213842 
687.500000	 10.169418 
685.000000	 10.136786 
682.500000	 10.116790 
680.000000	 10.076257 
677.500000	 10.063474 
675.000000	 10.053535 
672.500000	 10.043808 
670.000000	 10.015893 
667.500000	 10.007186 
665.000000	 9.980342  
662.500000	 9.959733  
660.000000	 9.932067  
657.500000	 9.926069  
655.000000	 9.905063  
652.500000	 9.899558  
650.000000	 9.875838  
647.500000	 9.841123  
645.000000	 9.818180  
642.500000	 9.805080  
640.000000	 9.779515  
637.500000	 9.763304  
635.000000	 9.753441  
632.500000	 9.738918  
630.000000	 9.719666  
627.500000	 9.705916  
625.000000	 9.684929  
622.500000	 9.655688  
620.000000	 9.635339  
617.500000	 9.617888  
615.000000	 9.614300  
612.500000	 9.600482  
610.000000	 9.582269  
607.500000	 9.556934  
605.000000	 9.541717  
602.500000	 9.536199  
600.000000	 9.513586  
597.500000	 9.497396  
595.000000	 9.480772  
592.500000	 9.456249  
590.000000	 9.442895  
587.500000	 9.419376  
585.000000	 9.388783  
582.500000	 9.372012  
580.000000	 9.376125  
577.500000	 9.363837  
575.000000	 9.331821  
572.500000	 9.331058  
570.000000	 9.303801  
567.500000	 9.276732  
565.000000	 9.273243  
562.500000	 9.258514  
560.000000	 9.236922  
557.500000	 9.224271  
555.000000	 9.194668  
552.500000	 9.169399  
550.000000	 9.157897  
547.500000	 9.133476  
545.000000	 9.118404  
542.500000	 9.106666  
540.000000	 9.091898  
537.500000	 9.057734  
535.000000	 9.047084  
532.500000	 9.024883  
530.000000	 8.996236  
527.500000	 8.982276  
525.000000	 8.948108  
522.500000	 8.917479  
520.000000	 8.877103  
517.500000	 8.821279  
515.000000	 8.738365  
512.500000	 8.646229  
510.000000	 8.542797  
507.500000	 8.439263  
505.000000	 8.330223  
502.500000	 8.253916  
500.000000	 8.220405  
497.500000	 8.233122  
495.000000	 8.272978  
492.500000	 8.304251  
490.000000	 8.313102  
487.500000	 8.310480  
485.000000	 8.310993  
482.500000	 8.290905  
480.000000	 8.256068  
477.500000	 8.231140  
475.000000	 8.204117  
472.500000	 8.164552  
470.000000	 8.113723  
467.500000	 8.060345  
465.000000	 8.001358  
462.500000	 7.943506  
460.000000	 7.895634  
457.500000	 7.867755  
455.000000	 7.844711  
452.500000	 7.833891  
450.000000	 7.831566  
447.500000	 7.828232  
445.000000	 7.820206  
442.500000	 7.790559  
440.000000	 7.758318  
437.500000	 7.718802  
435.000000	 7.679009  
432.500000	 7.648400  
430.000000	 7.616922  
427.500000	 7.596531  
425.000000	 7.579672  
422.500000	 7.538416  
420.000000	 7.511693  
417.500000	 7.482279  
415.000000	 7.453171  
412.500000	 7.413387  
410.000000	 7.372704  
407.500000	 7.341718  
405.000000	 7.306318  
402.500000	 7.276081  
400.000000	 7.237564  
397.500000	 7.199612  
395.000000	 7.149875  
392.500000	 7.101185  
390.000000	 7.051605  
387.500000	 6.978895  
385.000000	 6.910750  
382.500000	 6.826437  
380.000000	 6.768739  
377.500000	 6.754809  
375.000000	 6.736425  
372.500000	 6.704939  
370.000000	 6.677797  
367.500000	 6.649092  
365.000000	 6.601703  
362.500000	 6.544115  
360.000000	 6.493335  
357.500000	 6.410358  
355.000000	 6.313209  
352.500000	 6.232074  
350.000000	 6.134104  

